Stress;Strain
686671.8095;0.000115218
702377.1429;0.000121878
716773.7143;0.000127872
727680.1905;0.000133866
738150.2857;0.000140526
751674.2857;0.000147852
770433.5238;0.000155178
782648.7619;0.000162504
789628.9524;0.000170496
803152.9524;0.000178488
819730.6667;0.000187812
834563.619;0.000197136
854195.2381;0.000205128
880370.8571;0.000213786
900875.0476;0.000221778
913526.4762;0.00022977
929668;0.000237762
950608.5714;0.00024642
968495.0476;0.00025641
987254.0952;0.0002664
1006013.333;0.00027639
1048330.667;0.000285714
1078868.762;0.000294372
1089338.857;0.00030303
1108098.095;0.000310356
1129038.476;0.000317682
1149542.667;0.000323676
1164811.81;0.000330336
1184007.238;0.000335664
1200148.762;0.000342324
1206256.19;0.000348984
1205383.81;0.000354978
1212364;0.000360972
1232431.81;0.000367632
1241156.952;0.00037296
1248573.333;0.000378288
1265587.619;0.000384948
1280420.381;0.000391608
1287400.381;0.000397602
1284128.571;0.00040293
1289800;0.000407592
1294816.952;0.000411588
1313576.19;0.000416916
1323173.714;0.000422244
1320556.19;0.000427572
1328845.143;0.000433566
1344986.667;0.00043956
1352839.429;0.000444888
1351748.762;0.000451548
1359383.238;0.000458874
1379887.429;0.0004662
1398210.286;0.00047286
1409116.762;0.000480186
1420459.429;0.000488178
1438782.476;0.000495504
1452306.476;0.00050283
1463649.143;0.000512154
1481972;0.000521478
1498113.524;0.000530802
1516872.762;0.000541458
1540867.048;0.000550782
1558317.524;0.000560106
1575767.619;0.000568098
1595835.81;0.000576756
1618084.952;0.000583416
1641643.048;0.000590742
1654730.667;0.000597402
1661710.857;0.000604062
1671744.571;0.000610722
1681342.286;0.000618048
1687450.095;0.000625374
1688104.381;0.000632034
1706645.333;0.00063936
1717988.19;0.000646686
1727149.524;0.000653346
1736747.429;0.000660006
1748526.286;0.000666666
1760305.333;0.000673992
1772520.571;0.000681318
1788225.905;0.00068931
1804803.81;0.00069597
1820509.143;0.000701298
1834469.524;0.000707958
1845376;0.000713952
1851919.619;0.000718614
1852137.905;0.000723942
1868061.524;0.000728604
1865007.429;0.000733932
1870024.571;0.000739926
1871333.143;0.00074592
1875259.619;0.000751914
1892055.429;0.000758574
1899472;0.0007659
1907760;0.00077256
1919102.857;0.000780552
1933064.762;0.00078921
1946588.571;0.000796536
1959240;0.00080253
1978434.286;0.000807858
1996321.905;0.000813186
2005047.619;0.000819846
2001992.381;0.000826506
2007881.905;0.000833166
2013335.238;0.000840492
2027731.429;0.000847818
2039074.286;0.000855144
2053472.381;0.000863136
2062196.19;0.000870462
2073975.238;0.000878454
2090552.381;0.00088578
2103641.905;0.000894438
2114110.476;0.000901098
2127200;0.000907758
2143340.952;0.000914418
2158173.333;0.000919746
2165590.476;0.000926406
2163626.667;0.000931734
2172133.333;0.000937062
2187403.81;0.00094239
2194382.857;0.000947052
2192638.095;0.000953046
2195038.095;0.000958374
2197655.238;0.000964368
2202889.524;0.000969696
2221866.667;0.000974358
2216632.381;0.00097902
2221430.476;0.000984348
2223177.143;0.00098901
2224266.667;0.000993672
2226666.667;0.000999
2231464.762;0.001006992
2237573.333;0.001012986
2253714.286;0.001019646
2260695.238;0.001027638
2271163.81;0.001034298
2281634.286;0.001040958
2290796.19;0.001050282
2303011.429;0.00105894
2319588.571;0.001066932
2334859.048;0.001074258
2349255.238;0.001081584
2363651.429;0.001086246
2373249.524;0.001090908
2385028.571;0.001096902
2390699.048;0.001102896
2389390.476;0.001109556
2395935.238;0.001116216
2400080;0.001121544
2407714.286;0.001126872
2421674.286;0.001133532
2421674.286;0.001140192
2437379.048;0.001146852
2435417.143;0.00115218
2439560;0.001158174
2447413.333;0.001164168
2470099.048;0.001170162
2476641.905;0.001176156
2485367.619;0.001180818
2493657.143;0.001186146
2501946.667;0.001191474
2509361.905;0.001196802
2508708.571;0.00120213
2513942.857;0.00120879
2515906.667;0.001214784
2519396.19;0.001220778
2522885.714;0.00122877
2535973.333;0.001236096
2544699.048;0.00124209
2558222.857;0.001247418
2570001.905;0.001253412
2579600;0.001259406
2587453.333;0.0012654
2586142.857;0.001270728
2591596.19;0.001276056
2598794.286;0.001282716
2612320;0.001288044
2612100.952;0.001293372
2629769.524;0.0012987
2626280;0.001303362
2631514.286;0.001309356
2634131.429;0.001314684
2637403.81;0.001321344
2640893.333;0.001328004
2645910.476;0.00133533
2651582.857;0.001342656
2666415.238;0.001349982
2680375.238;0.001356642
2691718.095;0.001363968
2704369.524;0.001371294
2715276.19;0.001377954
2711786.667;0.00138528
2720948.571;0.001393272
2740579.048;0.001400598
2750177.143;0.001407924
2756283.81;0.001415916
2771118.095;0.001423242
2783333.333;0.001429902
2792059.048;0.001437228
2806019.048;0.001444554
2813434.286;0.00145188
2811036.19;0.001457874
2817579.048;0.001463868
2823251.429;0.001469862
2838737.143;0.001474524
2848335.238;0.001479852
2857497.143;0.001486512
2853788.571;0.001492506
2859024.762;0.0014985
2864476.19;0.001505826
2877563.81;0.00151182
2873420.952;0.001517148
2879310.476;0.00152181
2895015.238;0.001526472
2903304.762;0.001531134
2897851.429;0.001535796
2900468.571;0.001539126
2900685.714;0.001543122
2901340.952;0.001549116
2900685.714;0.001555776
2903304.762;0.00156177
2908321.905;0.00156843
2909847.619;0.00157509
2913120;0.001581084
2929916.19;0.001587078
2942567.619;0.001593072
2947801.905;0.001600398
2948020.952;0.00160839
2952382.857;0.001617714
2959580.952;0.001626372
2979649.524;0.001636362
2996226.667;0.001645686
3014550.476;0.00165501
3029819.048;0.00166167
3046396.19;0.001668996
3059049.524;0.001676988
3068645.714;0.001685646
3082605.714;0.001692306
3098312.381;0.001700298
3106163.81;0.00170829
3104419.048;0.001716948
3111400;0.00172494
3128849.524;0.0017316
3147173.333;0.00173826
3155024.762;0.001743588
3153499.048;0.00174825
3161350.476;0.00175491
3164841.905;0.001760904
3168331.429;0.001766898
3170295.238;0.001773558
3172257.143;0.001778886
3175529.524;0.001784214
3178801.905;0.001789542
3181201.905;0.001796202
3184255.238;0.001803528
3185344.762;0.001810854
3189489.524;0.001819512
3196034.286;0.001829502
3210866.667;0.001838826
3222645.714;0.001847484
3241840;0.00185814
3254057.143;0.00186813
3264527.619;0.001877454
3284158.095;0.001887444
3301171.429;0.001897434
3313386.667;0.001907424
3324293.333;0.001916748
3338691.429;0.00192474
3356140.952;0.0019314
3367047.619;0.001937394
3379699.048;0.001943388
3385805.714;0.001948716
3382099.048;0.001955376
3387552.381;0.001962036
3389078.095;0.001969362
3391914.286;0.001976022
3395622.857;0.001982016
3398459.048;0.001987344
3401076.19;0.001993338
3404129.524;0.002000664
3407619.048;0.002006658
3410455.238;0.002012652
3415689.524;0.002018646
3422451.429;0.002023974
3427470.476;0.002029302
3432268.571;0.002035962
3434449.524;0.002042622
3436849.524;0.00204795
3439902.857;0.002053944
3442302.857;0.002059272
3446881.905;0.002065266
3449064.762;0.002070594
3451681.905;0.002075922
3454954.286;0.002081916
3450373.333;0.00208791
3451137.143;0.002093238
3452226.667;0.002099232
3453754.286;0.00210456
3455499.048;0.00211122
3461497.143;0.00211788
3465424.762;0.002125206
3472840;0.002132532
3488763.81;0.002140524
3495744.762;0.002148516
3505777.143;0.002156508
3516683.81;0.002165832
3528026.667;0.00217449
3539369.524;0.002181816
3545478.095;0.002190474
3545041.905;0.002200464
3565544.762;0.002209788
3580379.048;0.002218446
3593030.476;0.002227104
3606990.476;0.002235762
3617459.048;0.002243088
3627493.333;0.002250414
3640146.667;0.00225774
3647998.095;0.0022644
3645161.905;0.002271726
3652360;0.002279052
3655415.238;0.002287044
3656940.952;0.002293704
3660868.571;0.00230103
3664140.952;0.00230769
3668502.857;0.00231435
3677009.524;0.002320344
3682245.714;0.002326338
3685952.381;0.002332332
3689443.81;0.002338326
3693369.524;0.002344986
3697514.286;0.002350314
3702531.429;0.002355642
3707329.524;0.00236097
3710601.905;0.002365632
3712346.667;0.002370294
3711910.476;0.002376288
3709293.333;0.002381616
3708420.952;0.002388276
3708857.143;0.00239427
3710165.714;0.00240093
3719980.952;0.002408256
3718891.429;0.002414916
3726525.714;0.002421576
3743975.238;0.002428902
3749211.429;0.002436228
3747683.81;0.002444886
3751828.571;0.002453544
3755973.333;0.002462202
3771895.238;0.002470194
3786729.524;0.002478852
3800253.333;0.002486844
3808540.952;0.002494836
3815521.905;0.002502828
3826428.571;0.002510154
3836899.048;0.002518146
3843441.905;0.002525472
3844097.143;0.002530134
3860020.952;0.002536128
3868308.571;0.002542788
3866127.619;0.002548782
3870272.381;0.002555442
3873980.952;0.002561436
3875070.476;0.002568762
3876380.952;0.00257409
3873544.762;0.002579418
3876925.714;0.002584746
3878670.476;0.00259074
3879106.667;0.002596734
3879325.714;0.00260073
3879434.286;0.002604726
3881287.619;0.002610054
3882596.19;0.002616048
3882596.19;0.002621376
3880742.857;0.002626038
3880415.238;0.002630034
3881615.238;0.00263403
3881287.619;0.002639358
3880196.19;0.002645352
3877689.524;0.002651346
3870489.524;0.002656008
3870272.381;0.002662002
3870055.238;0.002669328
3872780.952;0.002676654
3872889.524;0.00268398
3879651.429;0.002691972
3886413.333;0.00270063
3893830.476;0.002708622
3898628.571;0.002716614
3906700.952;0.002723274
3927640;0.0027306
3933312.381;0.00273726
3932440;0.00274392
3938982.857;0.00275058
3942691.429;0.002757906
3950108.571;0.002765898
3965158.095;0.002771892
3974756.19;0.002777886
3984354.286;0.002783214
3979337.143;0.002789208
3983481.905;0.002794536
3984135.238;0.002799198
3984135.238;0.002804526
3982826.667;0.002811852
3985118.095;0.00281718
3985662.857;0.002823174
3986318.095;0.002829168
3989371.429;0.002835162
3995478.095;0.002842488
3999622.857;0.002848482
4003331.429;0.00285381
4003767.619;0.002859804
4007257.143;0.002865798
4010529.524;0.002871126
4013365.714;0.002877786
4015327.619;0.002882448
4016419.048;0.002887776
4018600;0.002892438
4016638.095;0.002897766
4018163.81;0.002903094
4019908.571;0.002908422
4021436.19;0.002914416
4021653.333;0.00292041
4021980.952;0.00292707
4023072.381;0.002933064
4024053.333;0.002939724
4024598.095;0.002945718
4026670.476;0.00295038
4032342.857;0.002956374
4032123.81;0.002963034
4034087.619;0.002969028
4033542.857;0.002975022
4039977.143;0.002981682
4042158.095;0.002988342
4044994.286;0.002995002
4050011.429;0.003002328
4067243.81;0.003008988
4063752.381;0.003016314
4070950.476;0.003022974
4075095.238;0.003030966
4081640;0.003037626
4097344.762;0.003044952
4094944.762;0.003052944
4102144.762;0.003061602
4108251.429;0.003069594
4127447.619;0.00307692
4133554.286;0.003084246
4130500.952;0.003090906
4137262.857;0.003097566
4139662.857;0.003104226
4143371.429;0.003110886
4149914.286;0.00311688
4162782.857;0.003122874
4159512.381;0.003129534
4166055.238;0.003135528
4169110.476;0.003141522
4172163.81;0.00314685
4174563.81;0.003152178
4178489.524;0.003157506
4182415.238;0.003162834
4184815.238;0.003168162
4184379.048;0.003172824
4180342.857;0.003177486
4181761.905;0.003182148
4181870.476;0.003188142
4180889.524;0.003192804
4178706.667;0.003198132
4178489.524;0.00320346
4177508.571;0.003208122
4178270.476;0.003212118
4177617.143;0.003217446
4175980.952;0.003222774
4175436.19;0.003229434
4176200;0.003236094
4176744.762;0.003244086
4175761.905;0.003252078
4177398.095;0.00326007
4198120;0.00326673
4210337.143;0.003274056
4216007.619;0.003282714
4215571.429;0.003290706
4223424.762;0.003298698
4241746.667;0.003305358
4251780.952;0.00331335
4258760;0.003321342
4258979.048;0.003329334
4274466.667;0.003337326
4282320;0.003345318
4295405.714;0.003351978
4306312.381;0.003357972
4311984.762;0.003365298
4313074.286;0.003371292
4319401.905;0.003377952
4323763.81;0.003384612
4328561.905;0.003391938
4331398.095;0.003399264
4334451.429;0.00340659
4338815.238;0.003414582
4341868.571;0.003421242
4346013.333;0.003428568
4346666.667;0.003435894
4351683.81;0.003443886
4365643.81;0.003451878
4373497.143;0.003459204
4383531.429;0.00346653
4379822.857;0.003474522
4385495.238;0.003482514
4389638.095;0.00348984
4394219.048;0.003497166
4400327.619;0.003505158
4416687.619;0.003512484
4433700.952;0.003521142
4442862.857;0.003527136
4438499.048;0.003534462
4445043.81;0.003541122
4446788.571;0.003548448
4448316.19;0.003553776
4453767.619;0.003561102
4468601.905;0.003567762
4473836.19;0.003575754
4472527.619;0.003584412
4474491.429;0.003593736
4479508.571;0.003601062
4496958.095;0.003608388
4507428.571;0.00361638
4513973.333;0.003623706
4513100.952;0.003631698
4520299.048;0.003639024
4534476.19;0.003645684
4541893.333;0.003654342
4554108.571;0.003663
4564579.048;0.00366966
4559561.905;0.003675654
4567415.238;0.003681648
4571777.143;0.003687642
4572649.524;0.003694968
4576794.286;0.00370296
4578975.238;0.003708288
4581592.381;0.003713616
4588573.333;0.003718944
4592935.238;0.003724272
4594899.048;0.0037296
4594899.048;0.003734928
4591081.905;0.00373959
4592716.19;0.003744918
4593262.857;0.003750246
4593807.619;0.003757572
4592499.048;0.003763566
4591081.905;0.00376956
4591299.048;0.003775554
4591190.476;0.003781548
4590209.524;0.003786876
4589009.524;0.003793536
4588573.333;0.003801528
4588245.714;0.003808854
4588573.333;0.00381618
4591190.476;0.003824838
4608203.81;0.003833496
4613876.19;0.003841488
4614965.714;0.003850146
4632634.286;0.00385947
4649649.524;0.003868128
4665790.476;0.003875454
4674516.19;0.003883446
4671243.81;0.003892104
4677788.571;0.003900096
4682150.476;0.003908754
4688040;0.003916746
4707234.286;0.003924738
4714215.238;0.003932064
4712251.429;0.00393939
4720321.905;0.00394605
4734283.81;0.003953376
4733411.429;0.003960036
4749988.571;0.003966696
4756969.524;0.003973356
4752605.714;0.003980016
4756969.524;0.003986676
4760022.857;0.003992004
4760240;0.003998664
4763512.381;0.004004658
4764820.952;0.004011318
4762640;0.004017978
4768748.571;0.004024638
4766676.19;0.004030632
4768093.333;0.004036626
4773982.857;0.004041954
4772019.048;0.004048614
4779000;0.004053942
4780091.429;0.004060602
4777691.429;0.004067928
4779000;0.004073922
4780417.143;0.004080582
4782163.81;0.004087242
4783908.571;0.00409257
4786306.667;0.004098564
4795796.19;0.00410589
4799285.714;0.004113882
4800158.095;0.004121874
4801685.714;0.004130532
4805394.286;0.004137858
4826771.429;0.00414585
4840295.238;0.00415251
4850763.81;0.004160502
4855563.81;0.004168494
4854036.19;0.004174488
4859489.524;0.004179816
4864725.714;0.00418581
4867342.857;0.00419247
4867779.048;0.004200462
4869523.81;0.004208454
4867670.476;0.004217778
4883483.81;0.004227102
4883047.619;0.004236426
4902680;0.004244418
4920565.714;0.004251744
4927982.857;0.004258404
4926238.095;0.004263732
4930600;0.004267728
4931689.524;0.004271724
4932127.619;0.00427572
4928310.476;0.004279716
4928963.81;0.004283046
4922965.714;0.004287042
4916857.143;0.004291704
4899188.571;0.004295034
4892209.524;0.004298364
4893300.952;0.004303026
4885228.571;0.004307688
4869087.619;0.004313016
4862106.667;0.004320342
4864723.81;0.004328334
4862106.667;0.004336326
4863851.429;0.004342986
4869740.952;0.004350312
4874758.095;0.00435897
4881302.857;0.004366962
4888500.952;0.00437562
4905297.143;0.004383612
4919257.143;0.004390938
4934525.714;0.004396932
4946304.762;0.004403592
4951977.143;0.00440892
4947613.333;0.004414248
4948487.619;0.004419576
4947613.333;0.004424904
4944996.19;0.004430898
4947287.619;0.004437558
4948921.905;0.004443552
4949468.571;0.00444888
4954811.429;0.004454208
4958739.048;0.004459536
4960047.619;0.004466862
4962228.571;0.004474188
4957430.476;0.004480848
4959939.048;0.004486842
4962992.381;0.004493502
4980769.524;0.004500162
4976843.81;0.004506156
4981641.905;0.004512816
4983822.857;0.004518144
4986659.048;0.004524804
4989931.429;0.004530798
4993640;0.00453546
4998001.905;0.004541454
4998438.095;0.004546782
5000401.905;0.004552776
4997238.095;0.004559436
4997457.143;0.00456543
4997565.714;0.004570758
4999201.905;0.004577418
4999746.667;0.004584078
4999965.714;0.004589406
5007380.952;0.0045954
5009563.81;0.004600728
5012180.952;0.004606056
5013270.476;0.004610718
5010544.762;0.004616046
5011961.905;0.00462204
5012289.524;0.004628034
5012617.143;0.004634694
5012289.524;0.004641354
5012180.952;0.004649346
5013270.476;0.004656006
5015125.714;0.004663332
5022432.381;0.00467199
5026794.286;0.00467865
5032030.476;0.004683978
5051443.81;0.004689972
5058422.857;0.004696632
5052533.333;0.004702626
5053624.762;0.004707954
5052535.238;0.00471528
5050571.429;0.004721274
5054388.571;0.0047286
5061695.238;0.004734594
5064312.381;0.004740588
5066931.429;0.004747914
5067803.81;0.004755906
5064312.381;0.004763232
5067695.238;0.004769892
5088089.524;0.004776552
5095506.667;0.004782546
5092887.619;0.004787874
5098123.81;0.004793202
5102485.714;0.00479853
5105321.905;0.004803858
5105102.857;0.004809852
5106194.286;0.00481518
5103249.524;0.004820508
5104558.095;0.004825836
5105430.476;0.004831164
5106739.048;0.004835826
5106849.524;0.00484182
5112083.81;0.004846482
5114047.619;0.004853142
5110775.238;0.004859136
5112628.571;0.00486513
5113828.571;0.00487179
5116337.143;0.004877784
5122118.095;0.004883778
5123643.81;0.004891104
5127788.571;0.004897764
5130841.905;0.004904424
5135859.048;0.004910418
5143057.143;0.004917078
5149384.762;0.004924404
5156582.857;0.004933062
5162908.571;0.00494172
5168798.095;0.004950378
5186247.619;0.004959702
5202824.762;0.004967694
5215912.381;0.00497502
5224201.905;0.004982346
5232491.429;0.004989006
5246887.619;0.004996998
5255613.333;0.00500499
5248415.238;0.005010984
5253430.476;0.005017644
5257139.048;0.005024304
5267392.381;0.00503163
5267392.381;0.005039622
5271754.286;0.005046282
5275462.857;0.005052942
5293131.429;0.00505827
5301420.952;0.00506493
5296403.81;0.005072922
5300548.571;0.005079582
5303382.857;0.005087574
5306655.238;0.005095566
5311236.19;0.005104224
5315380.952;0.005112216
5318870.476;0.005119542
5324106.667;0.005126202
5339375.238;0.005132196
5346790.476;0.005137524
5343737.143;0.005143518
5347226.667;0.005150844
5348535.238;0.00515817
5348099.048;0.005164164
5352243.81;0.005170158
5364241.905;0.005176152
5360314.286;0.005182812
5365767.619;0.005190138
5367514.286;0.005199462
5368822.857;0.00520812
5374057.143;0.00521811
5392598.095;0.0052281
5407868.571;0.00523809
5424009.524;0.005246748
5443203.81;0.00525474
5458910.476;0.005263398
5464580.952;0.005270724
5464363.81;0.00527805
5480285.714;0.005285376
5489447.619;0.005292702
5495556.19;0.00530136
5495556.19;0.005309352
5502535.238;0.005315346
5508424.762;0.005322006
5515841.905;0.005329998
5530455.238;0.005336658
5527401.905;0.005343318
5531327.619;0.005349978
5532201.905;0.005356638
5531329.524;0.005363298
5530674.286;0.005369292
5533838.095;0.005373954
5539836.19;0.005379282
5541580.952;0.005383944
5536563.81;0.005389938
5536672.381;0.005395266
5531982.857;0.005399928
5529146.667;0.00540459
5527401.905;0.00541125
5525003.81;0.005417244
5523040;0.005423238
5521295.238;0.005428566
5524129.524;0.005435226
5523148.571;0.005441886
5522057.143;0.005448546
5522167.619;0.005455206
5522820.952;0.005461866
5523584.762;0.005469858
5532855.238;0.00547785
5546161.905;0.005486508
5542453.333;0.005495166
5549651.429;0.005503824
5553796.19;0.005513148
5560121.905;0.005522472
5579754.286;0.005530464
5590659.048;0.005539788
5605929.524;0.005548446
5619017.143;0.005555772
5627304.762;0.005563098
5637775.238;0.005569758
5643883.81;0.005576418
5640830.476;0.005583078
5641920;0.005589738
5644320;0.005596398
5655662.857;0.005602392
5650209.524;0.005608386
5654354.286;0.005613714
5653045.714;0.005620374
5648354.286;0.0056277
5648900.952;0.005633028
5650973.333;0.005638356
5652609.524;0.00564435
5651737.143;0.005651676
5656752.381;0.005658336
5659152.381;0.005664996
5659807.619;0.00567099
5663078.095;0.005676318
5665478.095;0.005682312
5667222.857;0.005688972
5669186.667;0.005696298
5671586.667;0.00570429
5677040;0.005712282
5680093.333;0.005718942
5685110.476;0.005724936
5701468.571;0.00573093
5705832.381;0.005738922
5704087.619;0.005745582
5707577.143;0.005752242
5707360;0.005758902
5709104.762;0.005764896
5707577.143;0.00577089
5710521.905;0.005776884
5719575.238;0.005783544
5721100.952;0.005791536
5721537.143;0.005800194
5723064.762;0.005808186
5720992.381;0.005816178
5728735.238;0.005822838
5747276.19;0.005828832
5757746.667;0.005836158
5765163.81;0.005844816
5761238.095;0.005854806
5763636.19;0.005864796
5768436.19;0.005873454
5790030.476;0.005882112
5806171.429;0.005890104
5814897.143;0.005898762
5823186.667;0.005906754
5835838.095;0.005915412
5838891.429;0.00592407
5837800;0.005930064
5842817.143;0.00593406
5846961.905;0.005938056
5850017.143;0.00594072
5849579.048;0.00594405
5834965.714;0.005948712
5827984.762;0.005952042
5829510.476;0.005956038
5821876.19;0.005961366
5803990.476;0.00596736
5792647.619;0.005973354
5786104.762;0.005978682
5790902.857;0.00598401
5790466.667;0.00599067
5789375.238;0.005996664
5791775.238;0.006002658
5787630.476;0.006008652
5782396.19;0.006014646
5787085.714;0.00602064
5788830.476;0.0060273
5794611.429;0.006034626
5797883.81;0.006041286
5802900.952;0.006046614
5805735.238;0.006053274
5809660.952;0.006058602
5813588.571;0.00606393
5815333.333;0.00607059
5817733.333;0.006076584
5819695.238;0.006083244
5821222.857;0.006089238
5818386.667;0.006095232
5820678.095;0.006101226
5823295.238;0.006107886
5830820.952;0.006115878
5835619.048;0.006122538
5838891.429;0.006129198
5843036.19;0.006134526
5856779.048;0.006139854
5864194.286;0.006144516
5859396.19;0.00615051
5860049.524;0.006155838
5859177.143;0.006161832
5856560;0.00616716
5858196.19;0.006173154
5858087.619;0.006179148
5857215.238;0.006184476
5857215.238;0.00619047
5858304.762;0.00619713
5859832.381;0.00620379
5865939.048;0.006211116
5865721.905;0.006217776
5862885.714;0.006225102
5867030.476;0.00623043
5887752.381;0.006235758
5891678.095;0.006241752
5889280;0.006247746
5891678.095;0.006254406
5892769.524;0.006259734
5893859.048;0.00626373
5897131.429;0.006269058
5895386.667;0.006274386
5895931.429;0.00628038
5895931.429;0.00628704
5897676.19;0.006293034
5898876.19;0.00630036
5898222.857;0.006307686
5899203.81;0.00631368
5900620.952;0.006319008
5914363.81;0.006325002
5911091.429;0.006331662
5912619.048;0.006338322
5912836.19;0.006345648
5915672.381;0.006354306
5918727.619;0.006362964
5925270.476;0.006370956
5944902.857;0.006378948
5959735.238;0.00638694
5971950.476;0.006394266
5979801.905;0.006402258
5979365.714;0.006409584
5996380.952;0.00641691
5993108.571;0.00642357
6000089.524;0.006429564
6005323.81;0.006435558
6010777.143;0.006440886
6016666.667;0.00644688
6019283.81;0.006454206
6021466.667;0.006460866
6024300.952;0.006467526
6036952.381;0.00647352
6043060.952;0.006478848
6042188.571;0.006484842
6047641.905;0.00649017
6052003.81;0.006494832
6055712.381;0.00650016
6057020.952;0.006504822
6051350.476;0.006509484
6051459.048;0.006514812
6045678.095;0.006519474
6041969.524;0.006524802
6040660.952;0.00653013
6041533.333;0.00653679
6044369.524;0.006542118
6044041.905;0.006548112
6044369.524;0.006554772
6045241.905;0.006562098
6046114.286;0.006568758
6048078.095;0.006574086
6050586.667;0.00658008
6057020.952;0.00658674
6062038.095;0.006594732
6067272.381;0.006602058
6081451.429;0.00661005
6092358.095;0.006619374
6102828.571;0.006628698
6109809.524;0.006635358
6118969.524;0.006642018
6129003.81;0.00665001
6135984.762;0.006658002
6135329.524;0.00666666
6141219.048;0.006675984
6148200;0.006684642
6166521.905;0.006691302
6178737.143;0.006697296
6188771.429;0.006703956
6197059.048;0.006711282
6193133.333;0.00671994
6196841.905;0.006729264
6200986.667;0.006738588
6218436.19;0.00674658
6231523.81;0.006754572
6242866.667;0.006761232
6256390.476;0.006767226
6263371.429;0.00677322
6260318.095;0.006778548
6263154.286;0.006785208
6260535.238;0.006791868
6255518.095;0.006799194
6257590.476;0.00680652
6253337.143;0.006814512
6258137.143;0.006821838
6258681.905;0.006828498
6263371.429;0.006835158
6268169.524;0.006840486
6273186.667;0.006845814
6277331.429;0.006850476
6277550.476;0.00685647
6278203.81;0.006863796
6274931.429;0.006872454
6277659.048;0.006880446
6295655.238;0.00688977
6303942.857;0.00689976
6312232.381;0.00690975
6324447.619;0.006917742
6333609.524;0.006925734
6344952.381;0.006934392
6357167.619;0.006942384
6365891.429;0.006950376
6378108.571;0.006957702
6384215.238;0.006963696
6380725.714;0.006971022
6386396.19;0.00697968
6388360;0.006987006
6391849.524;0.006993666
6399047.619;0.007000326
6413007.619;0.007005654
6409954.286;0.007012314
6413226.667;0.007018308
6411045.714;0.00702297
6406356.19;0.007028298
6407445.714;0.007033626
6402320;0.007038954
6400575.238;0.007042284
6397958.095;0.007046946
6397085.714;0.00705294
6398830.476;0.0070596
6390977.143;0.007066926
6379853.333;0.007073586
6383342.857;0.007080246
6381598.095;0.007086906
6387704.762;0.0070929
6388468.571;0.007098894
6394030.476;0.007103556
6395121.905;0.00710955
6394685.714;0.007115544
6390213.333;0.007121538
6390977.143;0.007128864
6391630.476;0.00713619
6392394.286;0.007144182
6393049.524;0.007151508
6409954.286;0.007158168
6407118.095;0.00716616
6411262.857;0.007174818
6413226.667;0.007183476
6416062.857;0.007192134
6430459.048;0.007200792
6440929.524;0.00720945
6451398.095;0.007218774
6459687.619;0.007226766
6469285.714;0.007234758
6480192.381;0.00724275
6489354.286;0.00724941
6498078.095;0.00725607
6496552.381;0.007262064
6501350.476;0.007268724
6506586.667;0.007275384
6510948.571;0.007281378
6515965.714;0.007288038
6518146.667;0.007294698
6517493.333;0.007302024
6513674.286;0.00730935
6516293.333;0.007315344
6519019.048;0.007320672
6520438.095;0.007326666
6528398.095;0.007331994
6531453.333;0.007338654
6532761.905;0.007344648
6533634.286;0.007351974
6529706.667;0.007358634
6530798.095;0.007365294
6532106.667;0.007371954
6534396.19;0.00737928
6540177.143;0.00738594
6544104.762;0.007393266
6549120;0.00739926
6553264.762;0.007406586
6556100.952;0.007413246
6559156.19;0.007421238
6563954.286;0.007427898
6581403.81;0.007434558
6585331.429;0.007441884
6584240;0.007449876
6586640;0.007457868
6590346.667;0.007466526
6606270.476;0.007473186
6616304.762;0.007479846
6612815.238;0.007486506
6618049.524;0.007491834
6621758.095;0.007498494
6623502.857;0.007505154
6626992.381;0.007511814
6629392.381;0.007519806
6630483.81;0.007526466
6632228.571;0.007533792
6630700.952;0.007540452
6633100.952;0.007547112
6638990.476;0.007554438
6641390.476;0.007561764
6646188.571;0.00756909
6658622.857;0.007575084
6655786.667;0.007581744
6662112.381;0.00758907
6664946.667;0.007595064
6668655.238;0.007600392
6671491.429;0.007603722
6670400;0.007608384
6666148.571;0.007613712
6666038.095;0.007619706
6658184.762;0.007625034
6653605.714;0.007631694
6652733.333;0.007637022
6652297.143;0.00764235
6655678.095;0.007648344
6653822.857;0.007654338
6651752.381;0.007659666
6651314.286;0.007666992
6651969.524;0.007674984
6653060.952;0.00768231
6654041.905;0.007686972
6662112.381;0.0076923
6666038.095;0.007699626
6668001.905;0.007706952
6669529.524;0.00771228
6670838.095;0.00771894
6669529.524;0.007724934
6678689.524;0.007730928
6683053.333;0.007737588
6684798.095;0.007744248
6685015.238;0.007750242
6686323.81;0.007757568
6686323.81;0.007762896
6703120;0.007768224
6700939.048;0.007773552
6702683.81;0.00777888
6703775.238;0.007784874
6698213.333;0.007790202
6699739.048;0.00779553
6700613.333;0.007801524
6695921.905;0.007806852
6698321.905;0.00781218
6697994.286;0.00781884
6698975.238;0.007826166
6698758.095;0.007834824
6703120;0.007840818
6705520;0.00784881
6717081.905;0.007854804
6728859.048;0.007860132
6737584.762;0.007864794
6735620.952;0.007870122
6739984.762;0.007876782
6739548.571;0.007884108
6737803.81;0.007890102
6736820.952;0.00789543
6751980.952;0.00790209
6754598.095;0.00790875
6751544.762;0.00791541
6753291.429;0.007921404
6753508.571;0.007926066
6755689.524;0.00793206
6759179.048;0.007937388
6756889.524;0.00794205
6757108.571;0.007948044
6758198.095;0.007954704
6759506.667;0.007960032
6760489.524;0.007966026
6760160;0.00797202
6759289.524;0.007979346
6759289.524;0.007986006
6761142.857;0.007992666
6775102.857;0.007999326
6773577.143;0.008006652
6778156.19;0.008014644
6780992.381;0.00802197
6784047.619;0.00802863
6788845.714;0.00803529
6804333.333;0.008042616
6810003.81;0.00804861
6810003.81;0.00805527
6815457.143;0.00806193
6817857.143;0.008069256
6822874.286;0.008075916
6825272.381;0.008084574
6829200;0.008092566
6834434.286;0.008101224
6836834.286;0.008107884
6842504.762;0.008114544
6860609.524;0.008120538
6868899.048;0.008126532
6867590.476;0.008131194
6874352.381;0.008135856
6876533.333;0.008140518
6876533.333;0.008145846
6870535.238;0.008150508
6871516.19;0.00815517
6865190.476;0.008160498
6862573.333;0.008165826
6859520;0.008169822
6860609.524;0.00817515
6862792.381;0.008181144
6861700.952;0.008186472
6860609.524;0.008192466
6860283.81;0.008197794
6860828.571;0.008203122
6861481.905;0.008209782
6862137.143;0.008217108
6861700.952;0.008224434
6862137.143;0.008231094
6863664.762;0.008237754
6870207.619;0.008244414
6876752.381;0.00825174
6893329.524;0.0082584
6902927.619;0.008267058
6910342.857;0.008275716
6910125.714;0.008283708
6926921.905;0.008292366
6935209.524;0.008300358
6943935.238;0.008307018
6951352.381;0.00831501
6951133.333;0.00832167
6958769.524;0.008329662
6964876.19;0.008336322
6971420.952;0.008344314
6976655.238;0.008352306
6983198.095;0.008360298
6998902.857;0.008368956
6995849.524;0.008377614
7004139.048;0.00838494
7022462.857;0.008392266
7030752.381;0.00839826
7028133.333;0.008404254
7032495.238;0.008409582
7035986.667;0.008415576
7034895.238;0.00842157
7030097.143;0.00842823
7031186.667;0.008433558
7032714.286;0.008440218
7033041.905;0.008446878
7032931.429;0.008455536
7033259.048;0.008462862
7037948.571;0.008469522
7053872.381;0.00847818
7062598.095;0.008485506
7055180.952;0.008493498
7059761.905;0.008500824
7061725.714;0.008508816
7076121.905;0.00851814
7082664.762;0.008526798
7082664.762;0.00853479
7104041.905;0.008542116
7117567.619;0.008550108
7124110.476;0.008558766
7123238.095;0.00856476
7130436.19;0.008572752
7145051.429;0.008580744
7142215.238;0.00858807
7149413.333;0.00859473
7162937.143;0.008603388
7160539.048;0.008610714
7167300.952;0.00861804
7174062.857;0.0086247
7193038.095;0.008632692
7200455.238;0.00864135
7196093.333;0.008650008
7199801.905;0.008658
7202855.238;0.008666658
7221396.19;0.008673984
7235356.19;0.008679312
7243645.714;0.008685306
7240592.381;0.008689968
7242773.333;0.008695296
7243426.667;0.008699292
7235794.286;0.008703954
7237756.19;0.008709282
7231647.619;0.008715276
7226413.333;0.00872127
7222923.81;0.008726598
7222923.81;0.008732592
7223140.952;0.008738586
7225432.381;0.00874458
7224560;0.008750574
7224560;0.008757234
7224340.952;0.008763228
7224123.81;0.008770554
7225432.381;0.008776548
7226304.762;0.008782542
7239720;0.008789202
7236883.81;0.008795862
7241245.714;0.008803188
7243862.857;0.008809848
7246262.857;0.00881784
7260222.857;0.008825832
7268512.381;0.00883449
7265676.19;0.008843148
7270257.143;0.008852472
7273748.571;0.008861796
7289015.238;0.00887112
7307775.238;0.008879778
7324352.381;0.00888777
7331769.524;0.008895096
7329805.714;0.008903754
7338095.238;0.008913078
7353582.857;0.008920404
7351838.095;0.008927064
7359036.19;0.008933058
7364706.667;0.008939718
7368851.429;0.008946378
7370379.048;0.008953038
7371034.286;0.008959698
7367325.714;0.008967024
7369179.048;0.008973684
7371796.19;0.008980344
7373760;0.008986338
7382375.238;0.008991666
7387392.381;0.008996994
7389356.19;0.009001656
7390447.619;0.00900765
7384666.667;0.009012978
7386302.857;0.009018306
7386956.19;0.0090243
7387283.81;0.00903096
7385211.429;0.00903762
7383139.048;0.009042948
7383030.476;0.009049608
7383247.619;0.009056268
7384666.667;0.009062928
7392409.524;0.009070254
7394373.333;0.009078246
7397862.857;0.009084906
7402880;0.009092232
7405933.333;0.009099558
7411386.667;0.009106218
7417931.429;0.009112878
7432544.762;0.009122202
7429927.619;0.009130194
7433419.048;0.009136854
7436253.333;0.009143514
7441053.333;0.00915084
7458721.905;0.0091575
7451960;0.009164826
7456102.857;0.009172152
7459375.238;0.009180144
7469628.571;0.009188136
7467228.571;0.009196128
7473990.476;0.009203454
7487078.095;0.009210114
7485769.524;0.009218106
7492095.238;0.009224766
7496893.333;0.009231426
7501038.095;0.009236754
7503657.143;0.009242082
7504529.524;0.009248742
7505838.095;0.009252738
7503110.476;0.009258066
7503219.048;0.009262728
7502348.571;0.009268722
7493840;0.009276048
7491222.857;0.009282708
7490567.619;0.009288702
7490350.476;0.009292698
7493731.429;0.00929736
7492967.619;0.009302022
7492203.81;0.009306018
7490676.19;0.009311346
7478352.381;0.009316008
7478788.571;0.009321336
7462647.619;0.009326664
7457411.429;0.009331992
7459592.381;0.00933732
7458066.667;0.009342648
7458721.905;0.009349974
7461664.762;0.009358632
7459483.81;0.00936729
7460466.667;0.009376614
7475737.143;0.009385272
7474862.857;0.009393264
7494931.429;0.009399924
7509763.81;0.009405918
7522851.429;0.009411912
7535502.857;0.009417906
7528958.095;0.009424566
7532230.476;0.009431226
7534628.571;0.009436554
7532885.714;0.009441882
7531794.286;0.00944721
7534849.524;0.009453204
7535830.476;0.009458532
7535502.857;0.009463194
7536156.19;0.009469188
7536375.238;0.00947385
7534521.905;0.009478512
7527868.571;0.009485172
7526996.19;0.009492498
7524815.238;0.009499824
7528523.81;0.009506484
7528196.19;0.00951381
7541173.333;0.00952047
7546845.714;0.009526464
7545537.143;0.009532458
7551207.619;0.009537786
7554043.81;0.00954378
7556224.762;0.009549774
7558188.571;0.009555102
7554916.19;0.009561762
7557316.19;0.009568422
7559278.095;0.009575082
7560914.286;0.009581742
7560914.286;0.009588402
7562333.333;0.009595728
7565167.619;0.009601722
7567022.857;0.009607716
7574329.524;0.00961371
7577819.048;0.009619704
7578910.476;0.009625032
7581746.667;0.00963036
7583927.619;0.009635022
7581200;0.009641014
7581527.619;0.00964701
7581855.238;0.009653004
7582182.857;0.009659664
7582619.048;0.009666324
7582946.667;0.009672984
7583272.381;0.009678978
7582946.667;0.00968497
7584255.238;0.009692298
7585346.667;0.009698292
7588289.524;0.009704952
7598760;0.009712278
7600506.667;0.009718938
7605304.762;0.00972693
7608139.048;0.009734256
7612066.667;0.009741582
7628426.667;0.009749574
7625373.333;0.009756234
7629080;0.009762894
7632352.381;0.00977022
7635188.571;0.009778878
7637586.667;0.009785538
7642603.81;0.009792864
7646967.619;0.009798858
7651765.714;0.009804852
7657655.238;0.009809514
7662891.429;0.009814842
7665725.714;0.009819504
7664634.286;0.009824166
7659727.619;0.009828828
7660927.619;0.009834156
7655693.333;0.009839484
7653946.667;0.009844812
7651765.714;0.00985014
7650676.19;0.009854802
7648057.143;0.009860796
7650457.143;0.009867456
7649474.286;0.009872784
7649584.762;0.009877446
7649912.381;0.009882774
7650131.429;0.009889434
7650893.333;0.009894762
7650784.762;0.009902088
7651765.714;0.009908748
7652965.714;0.00991474
7653946.667;0.009921402
7654929.524;0.00993006
7662453.333;0.009938052
7667034.286;0.009947376
7675104.762;0.009957366
7692120;0.009967356
7706080;0.009977346
7720912.381;0.009986004
7737491.429;0.009993996
7758430.476;0.010001322
7773264.762;0.010008648
7781552.381;0.01001664
7779154.286;0.0100233
7787224.762;0.010028628
7802057.143;0.010034622
7796603.81;0.010037952
7797695.238;0.010042614
7790933.333;0.010047942
7790933.333;0.010055268
7781552.381;0.010062594
7776754.286;0.010070586
7774573.333;0.010078578
7777407.619;0.01008657
7792895.238;0.010094562
7791150.476;0.010102554
7799657.143;0.010110546
7818198.095;0.010118538
7826487.619;0.010125864
7836521.905;0.010132524
7842630.476;0.010137852
7838702.857;0.010142514
7842630.476;0.010147176
7843283.81;0.010154502
7838266.667;0.010161828
7839247.619;0.01016982
7839358.095;0.010179144
7835211.429;0.01018647
7847864.762;0.01019313
7856152.381;0.010201122
7854190.476;0.01020978
7860080;0.010219104
7862914.286;0.010229094
7868586.667;0.010237086
7889308.571;0.010245744
7906760;0.01025307
7916792.381;0.010260396
7913956.19;0.010268388
7923773.333;0.01027638
7928135.238;0.010285038
7934897.143;0.01029303
7941660.952;0.010299024
7957801.905;0.01030635
7965217.143;0.01031301
7959763.81;0.010320336
7962382.857;0.010327662
7962600;0.010334988
7959982.857;0.010341648
7963363.81;0.010347642
7966091.429;0.010354302
7972198.095;0.01035963
7972417.143;0.010364958
7969906.667;0.010370952
7971217.143;0.010375614
7971653.333;0.010381608
7970780.952;0.010386936
7969361.905;0.010392264
7961946.667;0.010397592
7960201.905;0.010403586
7959982.857;0.010408248
7962491.429;0.010414242
7959763.81;0.010420902
7957146.667;0.010426896
7951912.381;0.01043289
7949512.381;0.01043955
7948857.143;0.01044621
7952240;0.010454202
7950276.19;0.010462194
7949731.429;0.010470852
7951367.619;0.01047951
7968272.381;0.010486836
7978306.667;0.010494828
7987902.857;0.010502154
7996192.381;0.010510146
7992702.857;0.010518138
7997500.952;0.010526796
8000554.286;0.010534788
8003390.476;0.010543446
8008190.476;0.010551438
8011897.143;0.010558764
8018222.857;0.01056609
8031529.524;0.010573416
8029784.762;0.01057941
8035891.429;0.010584738
8038944.762;0.010590732
8040255.238;0.010596726
8037855.238;0.010604052
8024548.571;0.010611378
8018441.905;0.010618704
8020622.857;0.01062603
8019095.238;0.010633356
8021278.095;0.010641348
8026293.333;0.01064934
8029784.762;0.010656666
8033274.286;0.010663992
8036546.667;0.010669986
8036546.667;0.010676646
8038944.762;0.010683306
8042000;0.010690632
8039382.857;0.010696626
8039927.619;0.01070262
8041236.19;0.01070928
8042217.143;0.01071594
8042217.143;0.0107226
8042980.952;0.01072926
8044398.095;0.01073592
8044180.952;0.010741914
8043634.286;0.010747242
8043744.762;0.01075257
8043853.333;0.01075923
8043308.571;0.010765224
8042217.143;0.01077255
8035455.238;0.01077921
8029348.571;0.010787202
8026293.333;0.010795194
8026076.19;0.01080252
8026293.333;0.010810512
8029893.333;0.010817838
8029238.095;0.01082583
8028912.381;0.010833822
8028801.905;0.010840482
8030657.143;0.010847808
8031312.381;0.010855134
8030329.524;0.01086246
8028257.143;0.010869786
8008843.81;0.010877778
8011460.952;0.010884438
8003826.667;0.010891098
7988340.952;0.010897092
7968272.381;0.010901088
7906321.905;0.010906416
7832160;0.010911078
7702154.286;0.010917072
7468318.095;0.010923066
7136761.905;0.010930392
6865409.524;0.010936386
6654259.048;0.010940382
6456198.095;0.010946376
6248537.143;0.01095237
6041752.381;0.010958364
5879462.857;0.010963692
5722409.524;0.010968354
5598512.381;0.010974348
5494683.81;0.01097901
5384744.762;0.010983672
5297493.333;0.010988334
5208497.143;0.010994328
5113392.381;0.011000988
5014798.095;0.01100565
4903988.571;0.01101231
4760895.238;0.01101897
4595988.571;0.011024964
4383967.619;0.01103229
3712127.619;0.011048274
