Stress;Strain
637374.4762;0.000094572
657878.6667;0.0000999
676637.9048;0.000104562
687108;0.000111222
700632;0.000117882
713719.8095;0.000122544
725062.4762;0.000129204
740768;0.000135864
754291.8095;0.000141858
772178.4762;0.000147186
790501.3333;0.00015318
801844.1905;0.00015984
814495.619;0.000165834
831509.9048;0.000171828
851141.5238;0.000177156
872081.9048;0.000182484
886042.0952;0.000187812
897384.9524;0.000193806
910908.9524;0.000200466
922688;0.000207792
932285.7143;0.00021312
944937.1429;0.00021978
965441.3333;0.00022644
985072.9524;0.000232434
1000342.095;0.000239094
1014302.286;0.000245088
1031316.381;0.000250416
1048766.667;0.000255744
1060109.524;0.000261072
1073197.333;0.000265734
1088030.095;0.000270396
1098936.571;0.000275724
1108534.286;0.000280386
1117259.619;0.00028638
1128166.095;0.000292374
1139944.952;0.000298368
1149542.667;0.000305028
1162630.476;0.000311688
1175281.905;0.000318348
1188805.905;0.000325674
1211927.81;0.000333
1232431.81;0.00033966
1250754.857;0.00034632
1271258.857;0.00035298
1285219.238;0.000358974
1290454.286;0.000365634
1292199.429;0.00037296
1320556.19;0.000380286
1338006.476;0.000386946
1350658.095;0.000393606
1372034.667;0.0003996
1389485.143;0.00040626
1404754.095;0.000413586
1423949.524;0.000420246
1439654.857;0.00042624
1457105.333;0.000433566
1473683.048;0.00043956
1481972;0.00044622
1490697.333;0.000454212
1500731.238;0.000462204
1510765.143;0.00046953
1528215.429;0.000477522
1550028.571;0.000484182
1569223.81;0.000490176
1582747.81;0.00049617
1597580.762;0.000502164
1611540.952;0.000508824
1620266.095;0.000514152
1630300;0.000520812
1649495.619;0.00052614
1662583.238;0.000530136
1669127.238;0.000534132
1680469.905;0.000538794
1676325.333;0.000543456
1685050.667;0.00054945
1690721.905;0.000554112
1697047.619;0.00055944
1714061.905;0.000565434
1727585.905;0.000571428
1741982.476;0.000578088
1753761.524;0.000584082
1765976.762;0.00058941
1779064.571;0.000595404
1792152.19;0.000601398
1800441.143;0.000608058
1814401.524;0.000614718
1832724.19;0.000622044
1849738.476;0.000630036
1860644.952;0.000638028
1868061.333;0.00064602
1887256.762;0.000653346
1912996.19;0.000662004
1935681.905;0.000670662
1952695.238;0.000678654
1964474.286;0.00068598
1979742.857;0.000694638
2000247.619;0.00070263
2019880;0.000710622
2038201.905;0.000718614
2057398.095;0.000726606
2075720;0.0007326
2095352.381;0.00073926
2110184.762;0.00074592
2115857.143;0.00075258
2117601.905;0.000759906
2138979.048;0.000767232
2153375.238;0.00077589
2169516.19;0.000783882
2184784.762;0.000790542
2202236.19;0.000797202
2225794.286;0.000803196
2242371.429;0.000809856
2250660.952;0.000816516
2249569.524;0.00082251
2257640;0.00082917
2275527.619;0.00083583
2287306.667;0.000843156
2297777.143;0.000851814
2308683.81;0.000860472
2325697.143;0.000868464
2340093.333;0.000876456
2347946.667;0.000883782
2361034.286;0.000891108
2380664.762;0.000898434
2397680;0.00090576
2412512.381;0.000911754
2428217.143;0.00091908
2444360;0.000927072
2450902.857;0.000937728
2450902.857;0.000948384
2475333.333;0.000960372
2496274.286;0.000969696
2538156.19;0.00097902
2552116.19;0.00098568
2578727.619;0.000991674
2596613.333;0.000997668
2610137.143;0.001004328
2625407.619;0.001011654
2631514.286;0.00101898
2630641.905;0.001026306
2638712.381;0.001032966
2658561.905;0.00103896
2674704.762;0.001043622
2686483.81;0.00104895
2693026.667;0.001053612
2693462.857;0.001056942
2699788.571;0.001060272
2703716.19;0.001064934
2705024.762;0.001069596
2705024.762;0.001074924
2701643.81;0.001080252
2703388.571;0.00108558
2705241.905;0.001091574
2706441.905;0.001097568
2723129.524;0.001103562
2736217.143;0.001109556
2744506.667;0.00111555
2751921.905;0.001120878
2760211.429;0.001126872
2768937.143;0.001134198
2777224.762;0.001141524
2785950.476;0.00114885
2795548.571;0.001157508
2805582.857;0.001164834
2818234.286;0.001172826
2832630.476;0.001181484
2848335.238;0.001189476
2867531.429;0.0011988
2887598.095;0.001207458
2901996.19;0.00121545
2916392.381;0.001222776
2935150.476;0.001230768
2949110.476;0.00123876
2959580.952;0.001246752
2973104.762;0.001254744
2984447.619;0.001262736
2994918.095;0.001269396
3014986.667;0.001276056
3034617.143;0.001283382
3044215.238;0.001289376
3049887.619;0.001296036
3048796.19;0.001304028
3053813.333;0.00131202
3069954.286;0.001319346
3085660.952;0.001326672
3097440;0.001333998
3110527.619;0.00134199
3125796.19;0.001349316
3133213.333;0.001355976
3141500.952;0.001361304
3153280;0.001367298
3160260.952;0.001373958
3158952.381;0.001379286
3165931.429;0.001384614
3170948.571;0.001390608
3176838.095;0.001397268
3183382.857;0.001404594
3189489.524;0.00141192
3209994.286;0.00141858
3222209.524;0.00142524
3232243.81;0.001432566
3240969.524;0.001437894
3250129.524;0.001444554
3261908.571;0.00145188
3270634.286;0.001457208
3268234.286;0.001463868
3274779.048;0.00146853
3281977.143;0.00147519
3294628.571;0.00148185
3293973.333;0.00148851
3311641.905;0.001495836
3322112.381;0.001502496
3326912.381;0.001510488
3337817.143;0.001517148
3353960;0.001523808
3363994.286;0.0015318
3360939.048;0.001539792
3367920;0.001547784
3375118.095;0.001555776
3399331.429;0.001563102
3411110.476;0.001571094
3420270.476;0.001579752
3434668.571;0.001587744
3450809.524;0.001596402
3461280;0.001603728
3470440;0.001610388
3487455.238;0.001617048
3500979.048;0.001621044
3507085.714;0.001626372
3508396.19;0.0016317
3512321.905;0.001637028
3514285.714;0.001642356
3515811.429;0.001645686
3510249.524;0.001649682
3512866.667;0.00165501
3513630.476;0.001661004
3514285.714;0.001666998
3513849.524;0.00167166
3513739.048;0.001676988
3514502.857;0.00168165
3515594.286;0.001687644
3517230.476;0.001693638
3522137.143;0.00170163
3525845.714;0.00170829
3539369.524;0.001716282
3551148.571;0.001725606
3560746.667;0.00173493
3571217.143;0.001742256
3586921.905;0.001750248
3599573.333;0.001759572
3612224.762;0.001767564
3624440;0.001774224
3633165.714;0.001779552
3644944.762;0.00178488
3654106.667;0.00179154
3662394.286;0.001798866
3660868.571;0.00180486
3666321.905;0.001810188
3671120;0.001815516
3674392.381;0.001820844
3676137.143;0.001826172
3679409.524;0.001830168
3682462.857;0.001835496
3685516.19;0.001839492
3690969.524;0.001844154
3689224.762;0.001849482
3684971.429;0.001855476
3685407.619;0.00186147
3688135.238;0.001866132
3698167.619;0.001870794
3690969.524;0.001876788
3699040;0.001882116
3702095.238;0.001886778
3705584.762;0.001893438
3708857.143;0.001900098
3710601.905;0.001906758
3712563.81;0.001912752
3715400;0.00191808
3731323.81;0.001923408
3740049.524;0.001930068
3737866.667;0.001936728
3745283.81;0.001943388
3759680;0.001950048
3757935.238;0.001955376
3764043.81;0.001960704
3769933.333;0.001966032
3774731.429;0.001972692
3778876.19;0.001978686
3783238.095;0.00198468
3788910.476;0.00199134
3802870.476;0.001997334
3800253.333;0.002003328
3807887.619;0.002009988
3812468.571;0.002017314
3816830.476;0.00202464
3818575.238;0.002030634
3820320;0.002037294
3835590.476;0.002042622
3852167.619;0.002048616
3857840;0.00205461
3852386.667;0.00206127
3842569.524;0.002068596
3848459.048;0.002075922
3859146.667;0.002083914
3873980.952;0.00209124
3881832.381;0.002099232
3880523.81;0.002107224
3889249.524;0.002115216
3907135.238;0.002123208
3912371.429;0.002129868
3914335.238;0.002136528
3938110.476;0.002143188
3946400;0.00214785
3945308.571;0.002152512
3963849.524;0.002157174
3970394.286;0.002161836
3965158.095;0.002167164
3966249.524;0.002172492
3962977.143;0.00217782
3960468.571;0.002183148
3961668.571;0.002188476
3963087.619;0.002193804
3962649.524;0.002199132
3962432.381;0.00220446
3969085.714;0.002210454
3970611.429;0.002216448
3973883.81;0.002223108
3976937.143;0.00222777
3982173.333;0.002233098
3986535.238;0.002240424
3989152.381;0.002246418
3993733.333;0.002253078
3998314.286;0.002259738
4016638.095;0.002267064
4020563.81;0.00227439
4020127.619;0.002282382
4026670.476;0.002290374
4046739.048;0.002299032
4058081.905;0.00230769
4070733.333;0.002315016
4090801.905;0.002321676
4105634.286;0.002328336
4107379.048;0.002334996
4105415.238;0.002343654
4109560;0.002352312
4121339.048;0.002360304
4131809.524;0.00236763
4143152.381;0.002375622
4154495.238;0.002383614
4164529.524;0.002391606
4176308.571;0.002399598
4190268.571;0.002406258
4199866.667;0.002412918
4208590.476;0.002418912
4206628.571;0.002425572
4209462.857;0.002431566
4211862.857;0.00243756
4214043.81;0.00244422
4216443.81;0.00245088
4219497.143;0.002458872
4222552.381;0.002466864
4225169.524;0.002474856
4239565.714;0.002481516
4250036.19;0.002488176
4257887.619;0.002494836
4254834.286;0.00250083
4259415.238;0.002508822
4264649.524;0.002516148
4276647.619;0.002523474
4277083.81;0.0025308
4293224.762;0.002538792
4291699.048;0.002546118
4298678.095;0.002552778
4304786.667;0.002559438
4310457.143;0.002566098
4315038.095;0.002573424
4319182.857;0.002581416
4324200;0.00259074
4328561.905;0.002600064
4346449.524;0.002609388
4365207.619;0.002618712
4379167.619;0.00262737
4391382.857;0.002634696
4403598.095;0.002642022
4415815.238;0.00265068
4428464.762;0.00265734
4434573.333;0.002663334
4433264.762;0.002671326
4440462.857;0.002678652
4445043.81;0.002685312
4450933.333;0.002692638
4454641.905;0.002699298
4456603.81;0.002705292
4462057.143;0.002709954
4478200;0.002715282
4472527.619;0.00272061
4474708.571;0.002726604
4474055.238;0.002733264
4469146.667;0.002739258
4470674.286;0.002744586
4472310.476;0.00275058
4472091.429;0.002755908
4471546.667;0.002761902
4472527.619;0.00276723
4479072.381;0.002772558
4481253.333;0.002777886
4476344.762;0.002783214
4477108.571;0.002789208
4477436.19;0.002795202
4478417.143;0.002801196
4478200;0.00280719
4478200;0.00281385
4478417.143;0.002821842
4479289.524;0.002829834
4488015.238;0.002837826
4493249.524;0.002845818
4499358.095;0.002854476
4506556.19;0.002863134
4522260.952;0.002871792
4532731.429;0.002881116
4550182.857;0.002891106
4567196.19;0.00290043
4574613.333;0.002909088
4586390.476;0.002917746
4599916.19;0.00292707
4612131.429;0.002935062
4620855.238;0.002942388
4619329.524;0.002949048
4636561.905;0.002955708
4646594.286;0.002961702
4641796.19;0.002967696
4645721.905;0.002973024
4646813.333;0.002979018
4646377.143;0.002984346
4645504.762;0.002989674
4647577.143;0.002995002
4647685.714;0.00300033
4646485.714;0.003005658
4646704.762;0.003011652
4646485.714;0.003017646
4646813.333;0.003024306
4646704.762;0.003029634
4646704.762;0.003035628
4652049.524;0.003042288
4655539.048;0.003049614
4655539.048;0.003056274
4656847.619;0.0030636
4655756.19;0.003070926
4670590.476;0.003079584
4680186.667;0.003087576
4692838.095;0.003095568
4700691.429;0.00310356
4698946.667;0.003112218
4707236.19;0.003118212
4723377.143;0.003124872
4732539.048;0.003132864
4740826.667;0.003139524
4739737.143;0.003145518
4756097.143;0.003151512
4750424.762;0.003157506
4752824.762;0.003164832
4753914.286;0.003174156
4749552.381;0.003182148
4753805.714;0.003188808
4776163.81;0.003195468
4777472.381;0.003202128
4777691.429;0.003207456
4781836.19;0.003214116
4785106.667;0.003220776
4789470.476;0.003228768
4791432.381;0.00323676
4792740.952;0.003246084
4794487.619;0.003254076
4799285.714;0.003260736
4817609.524;0.003268062
4829388.571;0.003274722
4835059.048;0.003280716
4830914.286;0.003286044
4834186.667;0.003291372
4835931.429;0.003296034
4834841.905;0.003301362
4833422.857;0.00330669
4835603.81;0.003311352
4835386.667;0.003317346
4833859.048;0.003322008
4833859.048;0.003327336
4825897.143;0.003331332
4820662.857;0.003335994
4817609.524;0.003341322
4814337.143;0.00334665
4811937.143;0.003351978
4809539.048;0.003357972
4808011.429;0.003365298
4805611.429;0.003373956
4809647.619;0.003381948
4824588.571;0.003388608
4838984.762;0.003397266
4847274.286;0.003404592
4856000;0.003411252
4863417.143;0.003417912
4861234.286;0.003423906
4866470.476;0.0034299
4869523.81;0.003435894
4873885.714;0.00344322
4877158.095;0.003448548
4880866.667;0.003455208
4885011.429;0.003460536
4889156.19;0.003467196
4893954.286;0.003471858
4897662.857;0.003477852
4900060.952;0.003483846
4899407.619;0.00348984
4897554.286;0.003495168
4900716.19;0.003500496
4903443.81;0.00350649
4909441.905;0.00351315
4904860.952;0.003518478
4906933.333;0.003524472
4908786.667;0.003530466
4911078.095;0.003537126
4916420.952;0.00354312
4913803.81;0.00354978
4919476.19;0.003555108
4922093.333;0.003561768
4925800;0.003568428
4928200;0.003575088
4930163.81;0.003581082
4935398.095;0.003587076
4948049.524;0.003592404
4944123.81;0.003597066
4949140.952;0.003601728
4949140.952;0.003607056
4947613.333;0.003612384
4945106.667;0.003619044
4946849.524;0.003625704
4946523.81;0.003632364
4946960;0.003637692
4947287.619;0.003643686
4952630.476;0.003650346
4956994.286;0.003657006
4959611.429;0.003663666
4964845.714;0.003670326
4968990.476;0.003677652
4972480;0.003684312
4978152.381;0.003690972
4983822.857;0.003696966
4987967.619;0.003703626
4992984.762;0.003710286
4995820.952;0.003717612
4997565.714;0.003723606
5002146.667;0.003730932
5006944.762;0.003737592
5011525.714;0.003744252
5017415.238;0.003751578
5021996.19;0.003757572
5026577.143;0.003764232
5029849.524;0.003770226
5033556.19;0.003777552
5035302.857;0.003784878
5037483.81;0.003792204
5041628.571;0.00379953
5045335.238;0.00380619
5058860.952;0.003812184
5057114.286;0.003817512
5063441.905;0.00382284
5068020.952;0.0038295
5070420.952;0.003835494
5072820.952;0.003841488
5074565.714;0.003847482
5076965.714;0.003853476
5081980.952;0.003858804
5087217.143;0.003864798
5091579.048;0.00386946
5092887.619;0.003874122
5093106.667;0.003878784
5089398.095;0.003884778
5091034.286;0.00388944
5091798.095;0.003894102
5092561.905;0.00389943
5091579.048;0.003904092
5091034.286;0.00390942
5090925.714;0.00391608
5090379.048;0.003923406
5091142.857;0.003930732
5092561.905;0.003938058
5110339.048;0.003945384
5119937.143;0.003953376
5116664.762;0.003961368
5126480;0.00396936
5146984.762;0.003978018
5156146.667;0.003985344
5166615.238;0.003993336
5174032.381;0.004001328
5173160;0.00400932
5190611.429;0.004016646
5199771.429;0.004024638
5212859.048;0.004031964
5222893.333;0.004038624
5218312.381;0.004045284
5226601.905;0.004051278
5239034.286;0.00405927
5235108.571;0.004067262
5237725.714;0.004075254
5240998.095;0.00408258
5253432.381;0.004091238
5257794.286;0.004098564
5258013.333;0.004107222
5264556.19;0.004114548
5281788.571;0.00412254
5294440;0.004130532
5301420.952;0.004137858
5298801.905;0.004146516
5303601.905;0.004153176
5306655.238;0.00415917
5311017.143;0.004165164
5317342.857;0.004171158
5321923.81;0.004177152
5325415.238;0.00418248
5327377.143;0.00418914
5328904.762;0.004195134
5330866.667;0.004201794
5328796.19;0.00420912
5330649.524;0.00421578
5332066.667;0.004223772
5333158.095;0.004231764
5333485.714;0.004239756
5336211.429;0.004247748
5357697.143;0.00425574
5369476.19;0.004263732
5364678.095;0.004270392
5371440;0.004277718
5387363.81;0.004285044
5402632.381;0.004293702
5406994.286;0.004301694
5407868.571;0.004309686
5424009.524;0.004317678
5430552.381;0.00432567
5431424.762;0.004333662
5452365.714;0.004340988
5462836.19;0.004347648
5468942.857;0.004354974
5470253.333;0.004361634
5484213.333;0.004367628
5480504.762;0.004374954
5483121.905;0.004381614
5484430.476;0.004388274
5486394.286;0.004394268
5484213.333;0.004400262
5490975.238;0.004406256
5487594.286;0.004412916
5487811.429;0.00441891
5489120;0.004424238
5490975.238;0.004427568
5491956.19;0.00443223
5492175.238;0.004437558
5491739.048;0.004444218
5477668.571;0.004450878
5483340.952;0.004457538
5480504.762;0.004464864
5479632.381;0.004471524
5485739.048;0.004478184
5486394.286;0.004484178
5492937.143;0.004491504
5497954.286;0.004499496
5503626.667;0.00450882
5505807.619;0.004518144
5511041.905;0.004526802
5517367.619;0.00453546
5536127.619;0.004544118
5547034.286;0.004552776
5542236.19;0.004561434
5550523.81;0.00456876
5564047.619;0.004576086
5575826.667;0.004584078
5587169.524;0.004591404
5592841.905;0.00459873
5593495.238;0.004607388
5598293.333;0.004614714
5602220.952;0.004621374
5608763.81;0.004627368
5611382.857;0.004633362
5613780.952;0.004640022
5616400;0.004646682
5611819.048;0.004652676
5613780.952;0.004658004
5616944.762;0.00466533
5618361.905;0.004672656
5618034.286;0.004679316
5623815.238;0.00468531
5635594.286;0.004691304
5630796.19;0.004697964
5635158.095;0.004703292
5637339.048;0.004709286
5637558.095;0.004714614
5638866.667;0.004719276
5637230.476;0.004723938
5637339.048;0.004729266
5635485.714;0.004735926
5635158.095;0.00474192
5628832.381;0.004747914
5628832.381;0.004754574
5632321.905;0.004761234
5632977.143;0.004767228
5638430.476;0.004774554
5641483.81;0.004782546
5644320;0.004791204
5646500.952;0.004799862
5651954.286;0.004807188
5670931.429;0.00481518
5682710.476;0.004823172
5696234.286;0.00483183
5703651.429;0.004839822
5701687.619;0.004847814
5710630.476;0.00485514
5728081.905;0.0048618
5736371.429;0.004871124
5744222.857;0.004879782
5742914.286;0.00488844
5749457.143;0.004897098
5765600;0.004904424
5779996.19;0.004911084
5786977.143;0.004917078
5783921.905;0.004923072
5788285.714;0.004930398
5790247.619;0.004937058
5791121.905;0.004943718
5793520;0.004949046
5797883.81;0.004954374
5798973.333;0.004959036
5801809.524;0.004963032
5797120;0.004966362
5797120;0.004970358
5795920;0.004975686
5775634.286;0.004981014
5763419.048;0.004985676
5769744.762;0.004990338
5764508.571;0.004997664
5762546.667;0.005002992
5759927.619;0.00500832
5757965.714;0.005013648
5756438.095;0.005019642
5759165.714;0.005025636
5758619.048;0.005030964
5756982.857;0.005036958
5755893.333;0.005043618
5755457.143;0.005050944
5755565.714;0.005058936
5755565.714;0.005066928
5757201.905;0.005074254
5775634.286;0.005079582
5781740.952;0.00508491
5782396.19;0.005090904
5788285.714;0.005096232
5792430.476;0.00510156
5794175.238;0.005106222
5793302.857;0.005112216
5790139.048;0.005120208
5791775.238;0.005126202
5794066.667;0.005132862
5795592.381;0.005138856
5802462.857;0.005146848
5809443.81;0.005154174
5814897.143;0.0051615
5821659.048;0.005168826
5838019.048;0.005175486
5845872.381;0.005182146
5843908.571;0.005187474
5849361.905;0.005193468
5852198.095;0.005200128
5854160;0.005206122
5857649.524;0.005210784
5861577.143;0.005216112
5864630.476;0.00522144
5865285.714;0.005226102
5861249.524;0.00523143
5861030.476;0.005236758
5856777.143;0.005242086
5855904.762;0.005247414
5852632.381;0.00525474
5856777.143;0.005260734
5856340.952;0.005265396
5856777.143;0.005272056
5862666.667;0.00527805
5866375.238;0.005284044
5867030.476;0.005290038
5867247.619;0.005297364
5864521.905;0.005303358
5866920;0.005310684
5869211.429;0.00531801
5887316.19;0.00532467
5896914.286;0.005330664
5894078.095;0.005336658
5899531.429;0.005342652
5903676.19;0.005349312
5904984.762;0.005355972
5907384.762;0.005362632
5910001.905;0.00536796
5907384.762;0.00537462
5913927.619;0.005381946
5910546.667;0.005389938
5911965.714;0.00539793
5914146.667;0.005405922
5932687.619;0.005413248
5944466.667;0.005420574
5952754.286;0.005428566
5950356.19;0.005435892
5956899.048;0.005441886
5963007.619;0.00544788
5980676.19;0.00545454
5976312.381;0.005460534
5978712.381;0.005466528
5978057.143;0.005472522
5973914.286;0.005478516
5976967.619;0.005485176
5977840;0.00549117
5978384.762;0.005497164
5977731.429;0.005503158
5978820.952;0.00550782
5995944.762;0.005513148
5999870.476;0.005518476
5994417.143;0.005522472
5993544.762;0.005526468
5989619.048;0.005530464
5990710.476;0.005535126
5985474.286;0.005539788
5971514.286;0.00554445
5975876.19;0.005549778
5971078.095;0.005555772
5970205.714;0.005562432
5971514.286;0.00556776
5974678.095;0.00557442
5973803.81;0.005582412
5977840;0.005589738
5981329.524;0.005597064
5985693.333;0.005605056
6002051.429;0.005612382
6013830.476;0.005619708
6023428.571;0.0056277
6019502.857;0.005635692
6026264.762;0.005643684
6044805.714;0.005653008
6059638.095;0.005661666
6072725.714;0.005670324
6084068.571;0.00567765
6092358.095;0.005685642
6091266.667;0.0056943
6097156.19;0.005702958
6104354.286;0.00571095
6118969.524;0.00571761
6132057.143;0.005725602
6145144.762;0.005733594
6152561.905;0.005741586
6151470.476;0.005748912
6158670.476;0.005755572
6161287.619;0.005761566
6163904.762;0.00576756
6167830.476;0.005775552
6169139.048;0.005781546
6175028.571;0.005788206
6180700.952;0.005796198
6185499.048;0.005803524
6189860.952;0.005809518
6193350.476;0.005815512
6196624.762;0.005822172
6199678.095;0.005828832
6202295.238;0.005836158
6205348.571;0.005842818
6205131.429;0.005850144
6202622.857;0.005856804
6205676.19;0.00586413
6208184.762;0.005871456
6217346.667;0.00588078
6221491.429;0.005889438
6226725.714;0.005898096
6245485.714;0.00590742
6254645.714;0.00591741
6261626.667;0.0059274
6274278.095;0.005935392
6289110.476;0.00594405
6302198.095;0.005952708
6308742.857;0.005959368
6317902.857;0.005965362
6328373.333;0.005972688
6323792.381;0.005978682
6329028.571;0.005983344
6330337.143;0.00598734
6327937.143;0.005992002
6324011.429;0.00599733
6325320;0.00600399
6319430.476;0.00601065
6317685.714;0.006017976
6316160;0.006025968
6319213.333;0.006033294
6328809.524;0.00604062
6341897.143;0.00604728
6348005.714;0.006053274
6345388.571;0.006058602
6348441.905;0.00606393
6349750.476;0.006069924
6349531.429;0.006074586
6348005.714;0.006079914
6350841.905;0.006084576
6350841.905;0.006091236
6350186.667;0.00609723
6349205.714;0.006103224
6343205.714;0.006108552
6341024.762;0.006115212
6341243.81;0.006121872
6344733.333;0.0061272
6357167.619;0.006133194
6367201.905;0.006138522
6357820.952;0.006145848
6362838.095;0.00615384
6360876.19;0.006163164
6358693.333;0.006171822
6370036.19;0.006179814
6392940.952;0.006187806
6402975.238;0.006195798
6409954.286;0.006204456
6409737.143;0.006212448
6417371.429;0.006221772
6438312.381;0.006231096
6450525.714;0.006238422
6457506.667;0.006246414
6455325.714;0.006254406
6460123.81;0.006262398
6466449.524;0.00627039
6487609.524;0.006277716
6493716.19;0.006285708
6490880;0.006292368
6496769.524;0.006299694
6499386.667;0.006307686
6502878.095;0.006315678
6507895.238;0.006323004
6512040;0.006328998
6528617.143;0.006334992
6536032.381;0.006340986
6530798.095;0.006346314
6533198.095;0.006350976
6531453.333;0.00635697
6528617.143;0.00636363
6530689.524;0.006369624
6531342.857;0.006376284
6531125.714;0.006382278
6530034.286;0.006388272
6529706.667;0.0063936
6529925.714;0.00640026
6531342.857;0.006405588
6532434.286;0.006411582
6537340.952;0.006417576
6539087.619;0.00642357
6535270.476;0.006430896
6537232.381;0.006438222
6538542.857;0.006445548
6540287.619;0.006452208
6547594.286;0.006457536
6564826.667;0.00646353
6559590.476;0.006470856
6564390.476;0.006477516
6567007.619;0.006484176
6567443.81;0.006492168
6569843.81;0.006498162
6574641.905;0.006504822
6587948.571;0.006512148
6584895.238;0.006518808
6589257.143;0.006525468
6591001.905;0.006531462
6592965.714;0.006539454
6597110.476;0.006547446
6602127.619;0.006554106
6608670.476;0.006561432
6613032.381;0.006568758
6616740.952;0.006576084
6620668.571;0.006584076
6623066.667;0.0065934
6629392.381;0.006601392
6646843.81;0.006608052
6656876.19;0.006614046
6662984.762;0.00662004
6662112.381;0.006626034
6665165.714;0.006630696
6665601.905;0.006636024
6664946.667;0.006642684
6662003.81;0.006647346
6663093.333;0.006652674
6662876.19;0.006657336
6657095.238;0.006663996
6658295.238;0.006669324
6652078.095;0.006673986
6648588.571;0.006679314
6645752.381;0.006684642
6644880;0.00668997
6643135.238;0.006695964
6640954.286;0.006702624
6642699.048;0.006709284
6637026.667;0.006715944
6635500.952;0.006722604
6638554.286;0.006728598
6638771.429;0.006735258
6638445.714;0.00674325
6638881.905;0.006751908
6645752.381;0.006758568
6650769.524;0.006765228
6657531.429;0.006771222
6675636.19;0.00677655
6681742.857;0.006781878
6677600;0.00678654
6679561.905;0.006791868
6679125.714;0.006798528
6676725.714;0.006805854
6679889.524;0.006812514
6681089.524;0.006819174
6681198.095;0.006825168
6683379.048;0.006831828
6703556.19;0.006837822
6707920;0.006843816
6703339.048;0.006849144
6702683.81;0.006855138
6701594.286;0.006861798
6699958.095;0.006868458
6703447.619;0.006875784
6704973.333;0.006882444
6711190.476;0.006888438
6714681.905;0.006893766
6716643.81;0.006899094
6719262.857;0.006905088
6720788.571;0.006910416
6724060.952;0.006917076
6727769.524;0.00692307
6730822.857;0.006929064
6733222.857;0.006935724
6732567.619;0.006942384
6730386.667;0.006947712
6733222.857;0.00695304
6735620.952;0.006958368
6741729.524;0.00696303
6744129.524;0.006969024
6739001.905;0.006975018
6739112.381;0.006981678
6739548.571;0.006988338
6734748.571;0.006994332
6739984.762;0.00699966
6749800;0.00700632
6746746.667;0.00701298
6750891.429;0.00701964
6750891.429;0.0070263
6751544.762;0.007032294
6755472.381;0.007038288
6768996.19;0.007045614
6765940.952;0.00705294
6768777.143;0.007060266
6769213.333;0.007066926
6771177.143;0.00707292
6769104.762;0.007078914
6777066.667;0.007085574
6780120;0.007092234
6782739.048;0.007098894
6786009.524;0.007105554
6789062.857;0.00711288
6792554.286;0.007120872
6794735.238;0.007127532
6798443.81;0.007134192
6802586.667;0.007140186
6806950.476;0.00714618
6813276.19;0.00715284
6820038.095;0.007158834
6824619.048;0.007164162
6830072.381;0.00716949
6833342.857;0.007176816
6832689.524;0.007182144
6833780.952;0.007187472
6831708.571;0.007192134
6833125.714;0.007196796
6832579.048;0.007201458
6833234.286;0.00720612
6833561.905;0.007210782
6833453.333;0.00721611
6833017.143;0.007221438
6831817.143;0.007226766
6830725.714;0.007232094
6825710.476;0.007238088
6825927.619;0.007244082
6828217.143;0.007251408
6827236.19;0.007258734
6828436.19;0.007266726
6847958.095;0.007274052
6854939.048;0.007281378
6855375.238;0.007290036
6875443.81;0.007297362
6886348.571;0.007304688
6893765.714;0.007312014
6902055.238;0.007320006
6910779.048;0.007327332
6923430.476;0.007336656
6935645.714;0.00734598
6940009.524;0.007354638
6938918.095;0.00736263
6955278.095;0.00736929
6974910.476;0.007377282
6981891.429;0.007386606
6979708.571;0.007395264
6989087.619;0.007404588
7012428.571;0.00741258
7023335.238;0.00741924
7029005.714;0.007426566
7038603.81;0.007434558
7047765.714;0.007440552
7044929.524;0.007445214
7049510.476;0.00745254
7051474.286;0.0074592
7052344.762;0.007467192
7053655.238;0.007474518
7053108.571;0.007480512
7060417.143;0.007486506
7065432.381;0.007493832
7069360;0.007500492
7072196.19;0.007507152
7073723.81;0.007513812
7075468.571;0.007521138
7073068.571;0.007527798
7080702.857;0.007534458
7083756.19;0.007541118
7085939.048;0.007547112
7089864.762;0.007554438
7094445.714;0.007561764
7110586.667;0.007571088
7106878.095;0.007581078
7115167.619;0.007590402
7131091.429;0.00759906
7140687.619;0.007607718
7159883.81;0.00761571
7179952.381;0.007623036
7186931.429;0.007629696
7185841.905;0.007635024
7193693.333;0.007641018
7196312.381;0.007647012
7197401.905;0.007653672
7195438.095;0.007661664
7192712.381;0.00766899
7194784.762;0.007676316
7207872.381;0.007684308
7217034.286;0.007690968
7226194.286;0.007697628
7232302.857;0.007703622
7232739.048;0.007710282
7238845.714;0.007716942
7241245.714;0.007722936
7244518.095;0.00772893
7246045.714;0.007734258
7242554.286;0.007740252
7244409.524;0.007746912
7246154.286;0.007753572
7246807.619;0.0077589
7247135.238;0.007764894
7247354.286;0.007770222
7247354.286;0.00777555
7247135.238;0.007781544
7247790.476;0.007787538
7247899.048;0.007793532
7247462.857;0.007800192
7246481.905;0.007808184
7246045.714;0.007816176
7247681.905;0.007824168
7262403.81;0.00783216
7274619.048;0.007840152
7280291.429;0.007847478
7281163.81;0.00785547
7286617.143;0.007863462
7291851.429;0.00787212
7297087.619;0.007881444
7302540.952;0.007890102
7324352.381;0.007898094
7337441.905;0.00790542
7343548.571;0.007913412
7343548.571;0.007921404
7350310.476;0.007929396
7355327.619;0.007936056
7360344.762;0.007942716
7364053.333;0.007949376
7368851.429;0.007954704
7372777.143;0.007960698
7377577.143;0.007966026
7380847.619;0.007970688
7381721.905;0.007976682
7376485.714;0.007982676
7376704.762;0.00798867
7377140.952;0.00799533
7373868.571;0.008002656
7377468.571;0.008009316
7377360;0.00801531
7384339.048;0.008020638
7395462.857;0.008025966
7391318.095;0.00803196
7389137.143;0.008037954
7378013.333;0.008043948
7385647.619;0.008049942
7382811.429;0.008055936
7388592.381;0.008062596
7393718.095;0.008069922
7394373.333;0.008076582
7396335.238;0.008084574
7398954.286;0.0080919
7408552.381;0.008099226
7406152.381;0.008107884
7412041.905;0.008117208
7417276.19;0.008126532
7430800;0.008133192
7443017.143;0.008139852
7459594.286;0.008146512
7468318.095;0.008153172
7464828.571;0.008159832
7468318.095;0.008167824
7467011.429;0.00817515
7468537.143;0.008183142
7467773.333;0.008191134
7471590.476;0.00819846
7482497.143;0.00820512
7496676.19;0.00821178
7503655.238;0.008217774
7511944.762;0.008224434
7509108.571;0.00823176
7511289.524;0.008239752
7513036.19;0.008247078
7514779.048;0.008253072
7517398.095;0.008259732
7521979.048;0.00826506
7525468.571;0.008272386
7523287.619;0.00827838
7519689.524;0.00828504
7521542.857;0.008290368
7523723.81;0.008296362
7524815.238;0.00830169
7525142.857;0.008307018
7524704.762;0.008313012
7524487.619;0.008317008
7525251.429;0.008323002
7525685.714;0.008326998
7518706.667;0.00833166
7503219.048;0.008336322
7497984.762;0.008342316
7500165.714;0.008346978
7498640;0.008352306
7498420.952;0.0083583
7502238.095;0.008365626
7498857.143;0.008372286
7497657.143;0.008379612
7497657.143;0.008385606
7498857.143;0.008392266
7500820.952;0.008400258
7508455.238;0.00840825
7511508.571;0.00841491
7516525.714;0.008420904
7528523.81;0.008426898
7526340.952;0.008432892
7533104.762;0.008438886
7537683.81;0.00844488
7542481.905;0.008450208
7544009.524;0.008456868
7544881.905;0.008462862
7545754.286;0.008469522
7543356.19;0.008477514
7544881.905;0.00848484
7547826.667;0.008492832
7565605.714;0.00850149
7562333.333;0.008510148
7568876.19;0.008517474
7575201.905;0.0085248
7596142.857;0.00853146
7605304.762;0.008537454
7601596.19;0.008544114
7605521.905;0.008549442
7606613.333;0.008554104
7608577.143;0.008559432
7604977.143;0.008563428
7606394.286;0.00856809
7605632.381;0.008572752
7600068.571;0.00857808
7595051.429;0.008583408
7591125.714;0.008589402
7587200;0.00859473
7582400;0.008600058
7580219.048;0.00860472
7578038.095;0.008610048
7575419.048;0.008615376
7572801.905;0.008620704
7569748.571;0.008626698
7569531.429;0.008632692
7571712.381;0.008639352
7569640;0.008646012
7567895.238;0.008652006
7567676.19;0.008658
7567022.857;0.008663328
7567459.048;0.008668656
7568222.857;0.008673984
7568003.81;0.008679978
7569312.381;0.008686638
7570403.81;0.008693964
7570512.381;0.00870129
7570184.762;0.00870795
7571276.19;0.008715942
7583491.429;0.008723268
7594834.286;0.008729928
7599196.19;0.008737254
7600068.571;0.00874458
7605739.048;0.008751906
7609666.667;0.008758566
7614028.571;0.008765226
7617956.19;0.00877122
7619481.905;0.008777214
7622100.952;0.008783208
7625154.286;0.008789868
7626243.81;0.008796528
7629952.381;0.008803188
7633660.952;0.008809848
7636714.286;0.008815842
7641076.19;0.00882117
7644348.571;0.008826498
7646529.524;0.00883116
7646967.619;0.008836488
7644240;0.00884115
7645222.857;0.008845812
7645440;0.008850474
7643259.048;0.008855802
7635188.571;0.008862462
7631262.857;0.008868456
7626462.857;0.008875116
7625590.476;0.008882442
7623190.476;0.008889768
7622754.286;0.008895096
7625045.714;0.008900424
7625809.524;0.008905752
7626135.238;0.008913078
7630388.571;0.008919072
7634752.381;0.008925732
7636714.286;0.008931726
7638897.143;0.008939052
7640422.857;0.008947044
7638241.905;0.008956368
7646095.238;0.008965692
7665072.381;0.008975682
7676413.333;0.008985006
7681649.524;0.00899433
7693864.762;0.009002322
7706952.381;0.009009648
7720040;0.009016308
7724838.095;0.009022302
7721567.619;0.00902763
7724620.952;0.009033624
7721131.429;0.009041616
7718403.81;0.009048942
7719057.143;0.009056934
7713497.143;0.009064926
7717967.619;0.009072918
7718295.238;0.009080244
7718622.857;0.009088902
7726584.762;0.009096894
7730729.524;0.009104886
7734000;0.009112212
7738144.762;0.009118872
7741853.333;0.009125532
7742944.762;0.009132858
7744253.333;0.009141516
7741417.143;0.009148842
7744034.286;0.009156168
7745998.095;0.00916416
7753632.381;0.009171486
7754940.952;0.00917748
7754940.952;0.009182808
7751670.476;0.009188802
7753740.952;0.009194796
7753304.762;0.00920079
7751670.476;0.009208116
7745998.095;0.009214776
7739236.19;0.009221436
7737708.571;0.009229428
7737491.429;0.009236754
7742725.714;0.009245412
7741961.905;0.009253404
7749487.619;0.009261396
7754504.762;0.009268056
7757558.095;0.009274716
7759740.952;0.009282042
7762139.048;0.009290034
7765194.286;0.009298692
7765194.286;0.009306018
7763339.048;0.009312678
7764866.667;0.009320004
7765847.619;0.00932733
7767483.81;0.009335322
7768683.81;0.009341316
7769883.81;0.00934731
7769011.429;0.009354636
7768356.19;0.009361296
7767375.238;0.009368622
7763447.619;0.009374616
7762575.238;0.009381276
7765194.286;0.009387936
7763011.429;0.009393264
7759958.095;0.009398592
7753851.429;0.009403254
7748834.286;0.009407916
7731382.857;0.00941391
7714805.714;0.009418572
7705643.81;0.009424566
7708480;0.009429894
7699099.048;0.009435888
7681213.333;0.009442548
7672923.81;0.009448542
7664200;0.009455868
7651112.381;0.009463194
7641078.095;0.009471186
7644350.476;0.009478512
7639331.429;0.009486504
7636714.286;0.009495162
7632788.571;0.009502488
7629516.19;0.009511812
7623190.476;0.00952047
7616864.762;0.009527796
7613592.381;0.009534456
7608139.048;0.009542448
7592653.333;0.00955044
7574765.714;0.009559764
7557752.381;0.009567756
7518487.619;0.009576414
7473118.095;0.009585072
7420767.619;0.009593064
7363180.952;0.00960039
7276801.905;0.00960705
7180824.762;0.00961371
7067396.19;0.00962037
6933028.571;0.009626364
6752417.143;0.009632358
6511601.905;0.009642348
4366080;0.009658332
