Stress;Strain
1366363.429;0.000344988
1440527.429;0.000368298
1506838.857;0.000390942
1576640.19;0.00041292
1623756.19;0.000436896
1683087.429;0.00046287
1748526.286;0.000487512
1809602.667;0.000510156
1868933.714;0.000532134
1930881.905;0.000554112
1973636.19;0.000575424
2025986.667;0.00059607
2079211.429;0.00061938
2110620.952;0.000644022
2159481.905;0.000664668
2220558.095;0.000684648
2272910.476;0.000704628
2313918.095;0.00072594
2373249.524;0.000747918
2420365.714;0.00076923
2465737.143;0.000787878
2524194.286;0.00080586
2573055.238;0.000823176
2609700.952;0.000840492
2624099.048;0.00085914
2653327.619;0.000877122
2701316.19;0.000893772
2735344.762;0.000910422
2767626.667;0.000928404
2799038.095;0.000947052
2832194.286;0.000966366
2868840;0.000986346
2905485.714;0.00100566
2948238.095;0.001024308
2990120;0.001041624
3025893.333;0.001056942
3065156.19;0.001071594
3101801.905;0.00108558
3114017.143;0.001098234
3136702.857;0.001110888
3153280;0.001124208
3170731.429;0.001138194
3193417.143;0.001152846
3211739.048;0.001168164
3251001.905;0.00118548
3281540.952;0.001203462
3313824.762;0.001221444
3349596.19;0.001240092
3381007.619;0.00125874
3414163.81;0.001278054
3452554.286;0.001297368
3491817.143;0.001314684
3540678.095;0.001332
3554201.905;0.001349316
3601754.286;0.001369296
3610043.81;0.001390608
3656723.81;0.001411254
3691624.762;0.001431234
3738740.952;0.00145188
3769278.095;0.00147186
3799817.143;0.001494504
3849550.476;0.001517148
3894047.619;0.001540458
3944655.238;0.001563102
3992643.81;0.001586412
4031906.667;0.001607724
4072914.286;0.001629036
4113051.429;0.00164835
4152314.286;0.001667664
4186340.952;0.00168831
4195502.857;0.001708956
4236948.571;0.0017316
4271849.524;0.001753578
4285373.333;0.001776222
4332053.333;0.001799532
4367824.762;0.00182151
4405344.762;0.001842822
4446352.381;0.001863468
4480380.952;0.001884114
4494777.143;0.00190476
4539712.381;0.001925406
4554108.571;0.001945386
4601660.952;0.001966032
4615184.762;0.001987344
4642668.571;0.002010654
4668843.81;0.002035962
4720323.81;0.00206127
4764820.952;0.002085912
4799721.905;0.00211122
4838112.381;0.002136528
4868651.429;0.002160504
4915767.619;0.002183148
4925801.905;0.002205126
4967245.714;0.002225772
4998657.143;0.002247084
5004327.619;0.00226773
5020032.381;0.00228771
5044900.952;0.002307024
5072820.952;0.002325672
5095942.857;0.002342988
5114700.952;0.002360304
5129969.524;0.00237762
5146984.762;0.002395602
5161380.952;0.002412918
5170106.667;0.002429568
5182321.905;0.002446218
5201516.19;0.002462202
5216786.667;0.002478852
5228565.714;0.002496168
5241653.333;0.00251415
5251251.429;0.002530134
5264337.143;0.002546118
5277426.667;0.002562768
5285278.095;0.00258075
5294876.19;0.0025974
5306219.048;0.00261405
5324540.952;0.002632032
5343300.952;0.002648682
5354207.619;0.002665332
5365114.286;0.002679984
5379510.476;0.002695968
5393034.286;0.002711286
5397396.19;0.002725272
5398487.619;0.002737926
5413539.048;0.002749248
5421392.381;0.002761236
5419864.762;0.002773224
5423137.143;0.002786544
5425535.238;0.002802528
5427935.238;0.00281718
5431643.81;0.00283383
5437750.476;0.002851146
5445386.667;0.002868462
5469380.952;0.002886444
5494683.81;0.00290376
5516931.429;0.002922408
5533074.286;0.002941722
5550523.81;0.002961702
5572337.143;0.00298035
5591095.238;0.002998332
5630360;0.003017646
5632977.143;0.003036294
5641702.857;0.003056274
5655226.667;0.003078918
5672676.19;0.003102228
5721100.952;0.003122874
5760363.81;0.003144852
5791775.238;0.00316683
5799628.571;0.003187476
5819259.048;0.003208788
5844125.714;0.003231432
5868994.286;0.00325341
5893860.952;0.003276054
5919600;0.003298032
5963660.952;0.003318678
5972822.857;0.00333999
5991146.667;0.003361302
6005106.667;0.003383946
6020811.429;0.003407256
6043060.952;0.003431898
6068363.81;0.003457206
6093666.667;0.003481182
6116788.571;0.003505824
6142091.429;0.003531798
6165213.333;0.003555774
6205348.571;0.003579084
6242866.667;0.003601062
6252900.952;0.00362304
6276022.857;0.00364635
6297836.19;0.003670326
6316160;0.003693636
6336226.667;0.003718278
6356293.333;0.003743586
6375489.524;0.003768894
6399047.619;0.0037962
6426967.619;0.003823506
6451836.19;0.003848148
6495897.143;0.003870792
6505495.238;0.003894102
6523380.952;0.003918078
6535160;0.003942054
6549556.19;0.00396603
6570933.333;0.003988008
6592746.667;0.00400932
6614123.81;0.004028634
6627647.619;0.004047282
6633318.095;0.00406593
6631356.19;0.004084578
6634626.667;0.00410256
6638990.476;0.004120542
6640735.238;0.00413919
6643788.571;0.00415584
6647280;0.00417249
6649897.143;0.004187808
6653169.524;0.004203792
6651641.905;0.004220442
6640735.238;0.004236426
6646297.143;0.00425241
6637245.714;0.004270392
6634845.714;0.004288374
6634626.667;0.00430569
6640081.905;0.004323006
6638009.524;0.004339656
6642699.048;0.00435564
6644443.81;0.004371624
6641062.857;0.004386276
6648805.714;0.004399596
6646080;0.004413582
6647605.714;0.004427568
6653169.524;0.00444222
6649678.095;0.004456872
6648478.095;0.00447219
6648478.095;0.004489506
6643788.571;0.004508154
6648478.095;0.0045288
6650333.333;0.00454878
6673019.048;0.00456876
6693960;0.004589406
6717516.19;0.004610718
6739329.524;0.004630032
6748491.429;0.004648014
6755472.381;0.004667994
6768558.095;0.004687308
6779028.571;0.004706622
6790371.429;0.004724604
6797788.571;0.004743918
6795826.667;0.004765896
6801933.333;0.00478854
6819601.905;0.004810518
6840979.048;0.004834494
6865409.524;0.004856472
6910342.857;0.00487845
6918196.19;0.004901094
6937392.381;0.00492507
6958769.524;0.004949046
6977963.81;0.004971024
7017662.857;0.00499167
7028569.524;0.005012316
7044274.286;0.005032962
7049946.667;0.005054274
7051691.429;0.005077584
7072196.19;0.005102226
7091390.476;0.005126868
7115820.952;0.005150844
7133272.381;0.005172822
7150721.905;0.005196132
7167300.952;0.005218776
7187803.81;0.005240088
7212234.286;0.005262066
7227068.571;0.00528471
7236228.571;0.005306022
7250624.762;0.005328666
7269384.762;0.005351976
7283780.952;0.00537795
7297304.762;0.005403258
7317809.524;0.005428566
7341367.619;0.00545454
7360125.714;0.005480514
7379760;0.005505156
7402880;0.005528466
7422076.19;0.005549778
7436908.571;0.005573088
7446940.952;0.005596398
7455666.667;0.005617044
7466573.333;0.00563769
7478352.381;0.005659668
7487514.286;0.005680314
7484460.952;0.005699628
7492095.238;0.005719608
7508019.048;0.005738256
7503655.238;0.00575757
7508236.19;0.005776884
7512600;0.005796864
7514998.095;0.005816178
7516525.714;0.00583416
7516961.905;0.005851476
7513798.095;0.005868792
7513472.381;0.005886108
7514453.333;0.005902758
7515325.714;0.005920074
7514672.381;0.005938056
7512600;0.005956704
7511944.762;0.005976684
7511617.143;0.005995998
7511836.19;0.006013314
7513689.524;0.006029964
7514889.524;0.006045948
7520670.476;0.006059268
7521542.857;0.006073254
7516417.143;0.006085908
7515434.286;0.006099894
7493620.952;0.006114546
7485769.524;0.006129198
7487733.333;0.006144516
7479443.81;0.006161166
7476171.429;0.006177816
7473554.286;0.006195132
7472245.714;0.006212448
7476935.238;0.00623043
7478135.238;0.006249744
7495803.81;0.006269058
7492531.429;0.00628704
7500820.952;0.006304356
7514998.095;0.00632367
7523287.619;0.006341652
7522198.095;0.006358968
7528958.095;0.00637695
7534630.476;0.006396264
7541392.381;0.006416244
7558624.762;0.006436224
7566914.286;0.00645687
7583491.429;0.006478848
7603994.286;0.006502158
7620573.333;0.006524136
7639769.524;0.006546114
7658527.619;0.006569424
7698228.571;0.006592734
7706080;0.006612048
7726584.762;0.006630696
7748834.286;0.006648678
7758866.667;0.00666666
7754940.952;0.006685974
7761049.524;0.00670662
7764539.048;0.006729264
7778499.048;0.00675324
7790714.286;0.006777882
7805110.476;0.006802524
7825179.048;0.006827166
7850045.714;0.006850476
7870550.476;0.006872454
7892800;0.006894432
7917230.476;0.006915744
7933807.619;0.006937056
7943841.905;0.006957702
7951695.238;0.00697968
7962163.81;0.007000992
7973942.857;0.007024302
7987466.667;0.007047612
7999245.714;0.00707292
8013207.619;0.007100226
8029348.571;0.007125534
8043744.762;0.00714951
8083007.619;0.00717282
8093478.095;0.007195464
8108310.476;0.007218774
8120527.619;0.007242084
8133615.238;0.007264728
8141030.476;0.007288038
8151937.143;0.007310016
8168080;0.007331994
8182038.095;0.007353972
8191200;0.00737595
8200798.095;0.007397262
8210830.476;0.007417242
8207779.048;0.007437888
8214102.857;0.007456536
8218683.81;0.007473186
8220211.429;0.007489836
8220430.476;0.007507152
8217702.857;0.007523802
8218139.048;0.007541118
8217047.619;0.007557768
8210830.476;0.007575084
8204287.619;0.007593066
8197308.571;0.007613046
8181165.714;0.00763236
8185093.333;0.00765234
8184657.143;0.007670988
8187055.238;0.007686972
8191310.476;0.007703622
8197308.571;0.007721604
8198180.952;0.007737588
8201887.619;0.007751574
8202761.905;0.007764894
8200142.857;0.007778214
8199270.476;0.007792866
8185529.524;0.007808184
8178548.571;0.007823502
8178548.571;0.00783882
8173967.619;0.007856802
8170695.238;0.007876782
8171786.667;0.007896096
8176476.19;0.007916742
8190763.81;0.007936056
8206468.571;0.007953372
8217375.238;0.007971354
8223920;0.007989336
8220428.571;0.008006652
8225881.905;0.008023968
8227192.381;0.00804195
8228937.143;0.008059932
8231118.095;0.008077914
8229590.476;0.008096562
8247041.905;0.008117208
8261001.905;0.00813852
8276270.476;0.008160498
8287177.143;0.008182476
8303318.095;0.008204454
8322078.095;0.008226432
8340836.19;0.008249076
8359160;0.008271054
8376611.429;0.0082917
8393188.571;0.008312346
8403222.857;0.00833166
8412819.048;0.008350974
8418927.619;0.00837162
8417182.857;0.008392932
8423289.524;0.008415576
8428960;0.008439552
8449028.571;0.00846486
8464735.238;0.008489502
8483493.333;0.008512812
8505742.857;0.008536788
8522320;0.00856143
8540643.81;0.008584074
8565510.476;0.008606718
8582523.81;0.008629362
8594739.048;0.008655336
8606081.905;0.008680644
8613499.048;0.008706618
8630076.19;0.008732592
8649708.571;0.008758566
8662360;0.008785206
8679375.238;0.00881118
8696388.571;0.008835156
8708167.619;0.008859132
8719074.286;0.008883108
8724308.571;0.008906418
8720382.857;0.008929728
8723217.143;0.008953038
8725400;0.008975016
8726272.381;0.008996994
8729108.571;0.009018306
8732161.905;0.00904095
8728780.952;0.00906093
8729761.905;0.009080244
8731289.524;0.00910089
8730961.905;0.009119538
8713838.095;0.009136854
8696824.762;0.009152838
8677628.571;0.00916749
8653198.095;0.009183474
8624841.905;0.009199458
8570744.762;0.009216108
8530609.524;0.009232092
8518394.286;0.009248742
8467788.571;0.009266058
8416310.476;0.009282708
8373556.19;0.009300024
8302881.905;0.00931734
8219992.381;0.009334656
8075156.19;0.009351306
7821253.333;0.009369954
5619017.143;0.009393264
