Stress;Strain
623850.4762;0.000101232
634320.7619;0.00010656
646972.1905;0.000111888
656133.7143;0.000118548
662241.3333;0.000125874
672275.2381;0.000132534
688853.1429;0.000140526
708920.9524;0.00014652
724190.0952;0.000154512
734660.1905;0.000161838
749493.1429;0.000169164
767816;0.000175824
779595.0476;0.00018315
790065.1429;0.000188478
806643.0476;0.000193806
822348.381;0.000200466
831073.5238;0.000208458
838053.7143;0.00021645
847651.4286;0.000225108
862920.381;0.000234432
883424.7619;0.00024309
908291.4286;0.000250416
933594.4762;0.000257076
950172.1905;0.000264402
963696.381;0.000271062
975475.2381;0.000277722
988126.8571;0.000283716
999905.7143;0.00028971
1009939.619;0.000295704
1023027.429;0.000301698
1026081.333;0.000307026
1024554.476;0.000311688
1033497.714;0.00031635
1060545.714;0.000321678
1066653.333;0.00032634
1065126.476;0.000330336
1070143.429;0.000334998
1072979.238;0.000340992
1078868.762;0.000345654
1082795.048;0.000350316
1086503.238;0.000354978
1092174.667;0.000362304
1104607.81;0.000370296
1111588;0.000376956
1122058.286;0.000384282
1135146.095;0.000391608
1150851.429;0.000398934
1169174.286;0.000405594
1185315.81;0.000411588
1197094.857;0.000418248
1206692.571;0.00042624
1217599.048;0.000433566
1233304.381;0.000438894
1250318.476;0.000444222
1266460;0.000451548
1274312.571;0.000458208
1271913.333;0.000465534
1295253.143;0.000471528
1315757.333;0.000478854
1325355.048;0.000485514
1331899.048;0.000492174
1344550.476;0.000498834
1359383.238;0.000503496
1367236;0.000508158
1376833.524;0.000514152
1389048.952;0.00051948
1395592.762;0.000526806
1394938.476;0.0005328
1413479.429;0.00053946
1427003.429;0.000545454
1436601.143;0.000550782
1446198.857;0.000556776
1459722.857;0.000563436
1473246.857;0.000570096
1485462.095;0.00057609
1498986.286;0.00058275
1509020.19;0.000588744
1515564;0.000594738
1516000.381;0.000601398
1539994.476;0.000607392
1553082.286;0.000613386
1555699.619;0.000620046
1557881.143;0.00062604
1574895.238;0.000632034
1586674.286;0.000638694
1596708.19;0.000645354
1603688.19;0.000651348
1604124.571;0.000656676
1625501.333;0.000662004
1638152.762;0.000667998
1647314.095;0.000674658
1654730.667;0.000680652
1654294.286;0.000687312
1661274.476;0.000693306
1678288.571;0.000699966
1689195.238;0.000706626
1700974.095;0.000713952
1711008.19;0.000721278
1718424.381;0.000728604
1731076;0.000735264
1745908.762;0.000741258
1758124;0.000747918
1763359.048;0.000753246
1763141.143;0.000759906
1770775.619;0.000765234
1787353.333;0.000771894
1784735.81;0.000778554
1792370.476;0.000785214
1798259.81;0.000791208
1819636.571;0.000798534
1833596.762;0.000804528
1837086.857;0.000809856
1839486.286;0.00081585
1854101.143;0.000821178
1852137.905;0.000827172
1858027.238;0.000833832
1862171.81;0.000839826
1868279.619;0.000845154
1889001.714;0.000849816
1910379.048;0.000855144
1922158.095;0.000859806
1916485.714;0.000865134
1920630.476;0.000869796
1920413.333;0.000875124
1922158.095;0.000881118
1919866.667;0.00088578
1928264.762;0.000890442
1933500.952;0.000895104
1938735.238;0.000901098
1944624.762;0.000907092
1950950.476;0.00091242
1955967.619;0.000918414
1960765.714;0.000924408
1967091.429;0.000930402
1981489.524;0.000937062
1979742.857;0.000944388
1988251.429;0.000951048
2011590.476;0.000958374
2021624.762;0.0009657
2018788.571;0.000974358
2037765.714;0.000981684
2053908.571;0.000988344
2066996.19;0.000997002
2080083.81;0.00100566
2092299.048;0.001013652
2101897.143;0.00102231
2115857.143;0.001030302
2130689.524;0.001038294
2142032.381;0.001046952
2157737.143;0.00105561
2169952.381;0.001063602
2179986.667;0.001071594
2198744.762;0.001079586
2216196.19;0.001087578
2223613.333;0.001094238
2233209.524;0.001101564
2245424.762;0.00110889
2253714.286;0.00111555
2261131.429;0.001121544
2259822.857;0.00112887
2267674.286;0.001137528
2283817.143;0.001146186
2290796.19;0.001153512
2302575.238;0.001159506
2320462.857;0.0011655
2330931.429;0.001172826
2324824.762;0.001180152
2328750.476;0.001186146
2331586.667;0.001192806
2343582.857;0.001200132
2341401.905;0.001207458
2348819.048;0.001214784
2355361.905;0.001221444
2372377.143;0.001227438
2381975.238;0.00123543
2388518.095;0.001243422
2398552.381;0.001252746
2410331.429;0.001262736
2423419.048;0.001271394
2439998.095;0.001280718
2455266.667;0.00128871
2471407.619;0.001296036
2489293.333;0.001302696
2503255.238;0.001309356
2510670.476;0.001316016
2518523.81;0.001322676
2526813.333;0.00132867
2525066.667;0.001336662
2530956.19;0.001343988
2536192.381;0.001351314
2541426.667;0.001359306
2560403.81;0.001367298
2572182.857;0.00137529
2575674.286;0.001382616
2579163.81;0.001389276
2602721.905;0.001395936
2611447.619;0.00140193
2617990.476;0.001406592
2617337.143;0.001411254
2619735.238;0.001415916
2622571.429;0.00142191
2624971.429;0.001427238
2626716.19;0.001433898
2628460.952;0.001439892
2630205.714;0.001445886
2628569.524;0.001452546
2636095.238;0.00145854
2643076.19;0.0014652
2649619.048;0.001471194
2655291.429;0.001477854
2658563.81;0.001484514
2662270.476;0.00149184
2666198.095;0.0014985
2669251.429;0.001506492
2676449.524;0.001513818
2681466.667;0.00152181
2685828.571;0.001529802
2692373.333;0.001537794
2713095.238;0.001546452
2730544.762;0.00155511
2738398.095;0.001563768
2748868.571;0.00157176
2759775.238;0.001580418
2768500.952;0.00158841
2780278.095;0.001596402
2788567.619;0.001604394
2799474.286;0.001612386
2817798.095;0.001619712
2829140.952;0.001627038
2834375.238;0.00163503
2835683.81;0.001642356
2840918.095;0.001649682
2848771.429;0.001657008
2853571.429;0.001663668
2856405.714;0.001670994
2863167.619;0.001676988
2880182.857;0.001683648
2888470.476;0.001689642
2885636.19;0.001696302
2889125.714;0.001702962
2891089.524;0.001709622
2894142.857;0.00171495
2909411.429;0.001720278
2913773.333;0.00172494
2910720;0.001730268
2913773.333;0.001735596
2914864.762;0.00174159
2915300.952;0.001747584
2913556.19;0.001752912
2915737.143;0.00175824
2916828.571;0.001763568
2918573.333;0.00177156
2925116.19;0.001779552
2928171.429;0.001786878
2931878.095;0.001794204
2937767.619;0.00180153
2958272.381;0.00180819
2973542.857;0.00181485
2983575.238;0.001820844
2990556.19;0.00182817
2988592.381;0.001836162
2992520;0.001844154
3000590.476;0.00185148
3022838.095;0.001858806
3029382.857;0.001866798
3028510.476;0.001874124
3033308.571;0.001880784
3037672.381;0.00188811
3043998.095;0.00189477
3058613.333;0.00190143
3058175.238;0.00190809
3065375.238;0.001915416
3070390.476;0.001922742
3075843.81;0.001930734
3080207.619;0.00193806
3085441.905;0.001947384
3091767.619;0.00195471
3098748.571;0.00196137
3116634.286;0.00196803
3127540.952;0.00197469
3137139.048;0.001980684
3145428.571;0.001986678
3143245.714;0.001992006
3146737.143;0.001998666
3147826.667;0.002005326
3148045.714;0.002011986
3151099.048;0.00201798
3167241.905;0.002021976
3161133.333;0.002025972
3163750.476;0.002029968
3165278.095;0.00203463
3160478.095;0.002039958
3160697.143;0.002045286
3145864.762;0.002051946
3151318.095;0.002059272
3148481.905;0.002065932
3149354.286;0.00207126
3154916.19;0.00207792
3153824.762;0.002085246
3159605.714;0.002092572
3166367.619;0.002100564
3183819.048;0.00210789
3195161.905;0.002115216
3209121.905;0.002121876
3220464.762;0.002128536
3216100.952;0.00213453
3222428.571;0.002140524
3227443.81;0.002146518
3230062.857;0.002152512
3233988.571;0.00215784
3238133.333;0.002163168
3240314.286;0.00216783
3242714.286;0.002172492
3245984.762;0.002177154
3247076.19;0.002182482
3243803.81;0.002188476
3245767.619;0.002193804
3246531.429;0.002198466
3246859.048;0.002203794
3247403.81;0.002208456
3247729.524;0.00221445
3246859.048;0.002221776
3247403.81;0.00222777
3248929.524;0.002233764
3249801.905;0.002240424
3256891.429;0.002247084
3263000;0.00225441
3273687.619;0.002260404
3270417.143;0.00226773
3276523.81;0.002273724
3279140.952;0.002279718
3285249.524;0.002285712
3292883.81;0.002292372
3312950.476;0.0022977
3319495.238;0.002303028
3316222.857;0.002309022
3322331.429;0.002315016
3321459.048;0.002321676
3320584.762;0.002328336
3318514.286;0.002334996
3320912.381;0.002341656
3323095.238;0.00234765
3342180.952;0.002354976
3337817.143;0.002361636
3343706.667;0.002368296
3346979.048;0.002374956
3351996.19;0.002381616
3367483.81;0.002388942
3363121.905;0.002396268
3368575.238;0.002402928
3372718.095;0.002409588
3386680;0.002415582
3385152.381;0.002422242
3391260.952;0.002428902
3396276.19;0.002435562
3399112.381;0.002443554
3404346.667;0.002450214
3418089.524;0.002455542
3423761.905;0.002462202
3420270.476;0.002468862
3422451.429;0.002475522
3424634.286;0.002482848
3427470.476;0.002489508
3430304.762;0.002496168
3432921.905;0.002502828
3436630.476;0.002508822
3449937.143;0.00251415
3458662.857;0.002519478
3454299.048;0.002525472
3459752.381;0.002532132
3463024.762;0.002538126
3464114.286;0.002542788
3467169.524;0.002546784
3463024.762;0.002551446
3464550.476;0.002556774
3465314.286;0.002562768
3466622.857;0.00256743
3466841.905;0.002572758
3467822.857;0.002578086
3467822.857;0.002582748
3467386.667;0.002588076
3468041.905;0.00259407
3468367.619;0.00260073
3468367.619;0.002606724
3470986.667;0.002613384
3486582.857;0.002622042
3481346.667;0.002630034
3488327.619;0.00263736
3507523.81;0.002646018
3524973.333;0.00265401
3532390.476;0.002661336
3541986.667;0.002669328
3554201.905;0.002677986
3560746.667;0.00268731
3570780.952;0.002695968
3585177.143;0.002703294
3596956.19;0.002708622
3606554.286;0.002713284
3613097.143;0.002719278
3610916.19;0.002727936
3615060.952;0.002735928
3618114.286;0.002744586
3621603.81;0.002752578
3636219.048;0.002761236
3651051.429;0.002769228
3659777.143;0.00277722
3658249.524;0.00278388
3666758.095;0.002789874
3684207.619;0.002796534
3690752.381;0.002803194
3685735.238;0.002811186
3688135.238;0.002818512
3688571.429;0.002824506
3691405.714;0.002831166
3705148.571;0.002836494
3704493.333;0.002841822
3710601.905;0.002847816
3712346.667;0.00285381
3713436.19;0.002859804
3708093.333;0.00286713
3710493.333;0.002875122
3712891.429;0.002883114
3714419.048;0.002891772
3715072.381;0.002901096
3724998.095;0.002909088
3747028.571;0.002917746
3756626.667;0.002926404
3765352.381;0.002935728
3784982.857;0.002944386
3801561.905;0.002952378
3810723.81;0.002959704
3823809.524;0.002966364
3835590.476;0.00297369
3839952.381;0.002981682
3839952.381;0.002989674
3844750.476;0.002996334
3850640;0.003002994
3868308.571;0.003008322
3875289.524;0.00301365
3874198.095;0.003018978
3878561.905;0.003024306
3878996.19;0.003029634
3878342.857;0.003034962
3873761.905;0.003040956
3875070.476;0.003046284
3870708.571;0.003051612
3868527.619;0.00305694
3871798.095;0.003062268
3871363.81;0.003068262
3870708.571;0.003074922
3870925.714;0.003082914
3871798.095;0.00309024
3871472.381;0.003097566
3872561.905;0.003104226
3875180.952;0.003112218
3893175.238;0.00312021
3915424.762;0.00312687
3935057.143;0.003132864
3939419.048;0.003139524
3936582.857;0.003145518
3939638.095;0.003151512
3940291.429;0.003157506
3943127.619;0.003164166
3944219.048;0.003171492
3943236.19;0.003179484
3952506.667;0.00318681
3968649.524;0.003194802
3974756.19;0.003204126
3975847.619;0.003211452
3990897.143;0.00322011
3988716.19;0.003228102
3995914.286;0.00323676
4011838.095;0.003245418
4018382.857;0.00325341
4028853.333;0.003261402
4041504.762;0.003268062
4048483.81;0.003275388
4047175.238;0.003282714
4053720;0.003289374
4069860.952;0.003296034
4080331.429;0.00330336
4074441.905;0.003310686
4076622.857;0.003318678
4079895.238;0.003325338
4092546.667;0.003331998
4098653.333;0.003338658
4097344.762;0.003345318
4103889.524;0.003351978
4107815.238;0.003358638
4112613.333;0.003365298
4118721.905;0.003370626
4119158.095;0.00337662
4121339.048;0.00338328
4115668.571;0.00338994
4117630.476;0.0033966
4120575.238;0.003402594
4142716.19;0.003408588
4144897.143;0.003414582
4143371.429;0.003420576
4144897.143;0.003427236
4145116.19;0.003433896
4146424.762;0.003440556
4147078.095;0.003447882
4154712.381;0.003455208
4161693.333;0.003462534
4177617.143;0.00346986
4174780.952;0.003478518
4183070.476;0.003487842
4199866.667;0.003495834
4208156.19;0.00350316
4206845.714;0.00350982
4214699.048;0.003515814
4220805.714;0.00352314
4224733.333;0.003530466
4227350.476;0.003537126
4233020.952;0.003543786
4247417.143;0.003550446
4241529.524;0.003555774
4248072.381;0.003561102
4249600;0.003567096
4250472.381;0.003574422
4254617.143;0.003580416
4255706.667;0.00358641
4259198.095;0.003594402
4263342.857;0.003601728
4265085.714;0.003607722
4268577.143;0.003614382
4270321.905;0.003620376
4273158.095;0.00362637
4276428.571;0.00363303
4278392.381;0.003638358
4280356.19;0.003644352
4276647.619;0.003650346
4279483.81;0.003657672
4280792.381;0.003663666
4282100.952;0.003670326
4283409.524;0.003677652
4285045.714;0.003684978
4286681.905;0.003691638
4293662.857;0.003697632
4297805.714;0.003701628
4302603.81;0.003707622
4304131.429;0.00371295
4305003.81;0.003718278
4305659.048;0.003724272
4303478.095;0.003731598
4303367.619;0.003738258
4303803.81;0.00374625
4304022.857;0.00375291
4313729.524;0.00375957
4321582.857;0.003766896
4318746.667;0.003773556
4322019.048;0.003780216
4326163.81;0.003788208
4343394.286;0.003795534
4353864.762;0.00380286
4360409.524;0.003808854
4358664.762;0.003814182
4363462.857;0.003820176
4366518.095;0.003825504
4368260.952;0.003831498
4371969.524;0.003836826
4373497.143;0.003841488
4374805.714;0.00384615
4371969.524;0.003850812
4372733.333;0.003855474
4372624.762;0.003860802
4372516.19;0.00386613
4372407.619;0.003871458
4370988.571;0.003878118
4370443.81;0.003884778
4370116.19;0.003891438
4370335.238;0.003898098
4376550.476;0.003904092
4380259.048;0.003910086
4385057.143;0.003916746
4389420.952;0.003923406
4392693.333;0.0039294
4395965.714;0.003935394
4398580.952;0.003941388
4402944.762;0.00394605
4406217.143;0.003952044
4409923.81;0.003958704
4413632.381;0.003963366
4414940.952;0.003968694
4417123.81;0.003974022
4418432.381;0.00397935
4416032.381;0.003985344
4415704.762;0.003990672
4415704.762;0.003996
4415377.143;0.004001328
4415596.19;0.004007322
4417340.952;0.004013982
4417996.19;0.004020642
4425630.476;0.004028634
4430864.762;0.004037292
4433045.714;0.004044618
4439371.429;0.004051278
4457695.238;0.004057938
4462493.333;0.004065264
4459440;0.004071924
4463365.714;0.004079916
4465548.571;0.004087242
4471219.048;0.004094568
4489104.762;0.004100562
4497394.286;0.004107222
4496304.762;0.004113882
4500011.429;0.004119876
4505028.571;0.004126536
4509392.381;0.004133196
4511790.476;0.004139856
4518116.19;0.004144518
4522480;0.004150512
4536220.952;0.004156506
4532295.238;0.0041625
4534476.19;0.004168494
4535567.619;0.004174488
4531422.857;0.004179816
4534586.667;0.004185144
4536984.762;0.004189806
4538729.524;0.004195134
4542546.667;0.004200462
4539820.952;0.004205124
4540474.286;0.004209786
4541348.571;0.004214448
4543201.905;0.00421911
4543965.714;0.004223106
4542765.714;0.004229766
4534040;0.004236426
4535567.619;0.004243086
4533822.857;0.004250412
4540584.762;0.004257738
4549744.762;0.004265064
4559342.857;0.00427239
4572430.476;0.004279716
4584209.524;0.004287042
4592062.857;0.004293702
4591626.667;0.004301028
4599260.952;0.004309686
4604933.333;0.004317678
4613003.81;0.004326336
4631761.905;0.004333662
4641360;0.004341654
4649213.333;0.004350312
4658373.333;0.00435897
4671026.667;0.004366962
4681495.238;0.004374954
4686731.429;0.004382946
4686950.476;0.004390938
4702000;0.004396932
4709417.143;0.004404924
4718140.952;0.004411584
4732975.238;0.004418244
4743007.619;0.00442557
4737337.143;0.004432896
4741918.095;0.00443889
4746280;0.004444884
4756969.524;0.004450878
4752169.524;0.004457538
4754569.524;0.004462866
4755441.905;0.004470192
4757622.857;0.004476186
4761331.429;0.004482846
4763076.19;0.004490172
4763948.571;0.004497498
4767001.905;0.004504158
4764931.429;0.00451215
4772674.286;0.004520808
4777255.238;0.0045288
4790125.714;0.004534794
4801466.667;0.004541454
4813245.714;0.004548114
4818918.095;0.004556106
4814337.143;0.004563432
4819135.238;0.004570758
4821316.19;0.00457875
4826771.429;0.004586742
4833095.238;0.0045954
4841384.762;0.004604058
4857744.762;0.00461205
4854472.381;0.004620042
4862325.714;0.004627368
4877813.333;0.004633362
4892645.714;0.004640688
4901807.619;0.004648014
4898316.19;0.004654674
4906169.524;0.004662666
4922310.476;0.004669326
4930600;0.004677318
4928200;0.004685976
4932561.905;0.004693302
4936272.381;0.004699962
4941070.476;0.004706622
4954158.095;0.00471195
4951758.095;0.004717944
4954811.429;0.004724604
4957430.476;0.004730598
4958302.857;0.004737258
4960700.952;0.004743252
4963973.333;0.00474858
4965064.762;0.004753908
4967026.667;0.004759902
4968990.476;0.004766562
4966373.333;0.004772556
4967137.143;0.004779216
4968773.333;0.00478521
4969318.095;0.004790538
4969426.667;0.004796532
4970735.238;0.00480186
4972699.048;0.004807854
4977497.143;0.004813848
4978588.571;0.004821174
4974335.238;0.004827834
4974988.571;0.00483516
4976952.381;0.004842486
4988622.857;0.004849812
4987967.619;0.004857804
4995384.762;0.004866462
5010872.381;0.00487512
5020906.667;0.004884444
5032683.81;0.004894434
5039664.762;0.004903092
5047954.286;0.004912416
5059733.333;0.004920408
5069767.619;0.004929066
5079800;0.004936392
5089398.095;0.004943718
5098123.81;0.004949712
5096596.19;0.004957038
5101832.381;0.004963032
5104668.571;0.00496836
5105102.857;0.004974354
5106194.286;0.004979682
5104230.476;0.00498501
5105430.476;0.004990338
5105539.048;0.004995666
5104994.286;0.005000994
5104885.714;0.005006322
5104885.714;0.00501165
5105102.857;0.00501831
5104558.095;0.00502497
5103794.286;0.00503163
5104339.048;0.005038956
5105539.048;0.005046948
5108158.095;0.00505494
5117318.095;0.005062266
5124299.048;0.005069592
5140003.81;0.005075586
5137605.714;0.005082246
5143057.143;0.005089572
5147638.095;0.00509823
5150038.095;0.005105556
5156363.81;0.005112882
5173160;0.005120208
5181449.524;0.005126868
5180358.095;0.00513486
5186030.476;0.005142186
5192573.333;0.005150178
5211550.476;0.00515817
5220276.19;0.005166162
5215914.286;0.005175486
5223984.762;0.005183478
5237725.714;0.005190804
5235108.571;0.00519813
5241653.333;0.005206122
5247104.762;0.005212116
5263464.762;0.005219442
5269137.143;0.005226102
5268264.762;0.005232096
5273499.048;0.00523809
5273499.048;0.005247414
5274154.286;0.005254074
5276118.095;0.005260734
5286150.476;0.005267394
5282224.762;0.005273388
5286805.714;0.005278716
5288986.667;0.00528471
5291822.857;0.005290704
5295967.619;0.005296032
5296840;0.005300694
5292259.048;0.005306022
5292259.048;0.005310684
5292367.619;0.005315346
5283316.19;0.005320008
5280260.952;0.00532467
5274590.476;0.005329998
5267392.381;0.00533466
5263683.81;0.005339988
5258449.524;0.005345316
5257139.048;0.005351976
5256702.857;0.005358636
5260520;0.005365296
5257902.857;0.005370624
5257466.667;0.005375952
5259211.429;0.00538128
5260520;0.005388606
5268700.952;0.0053946
5274154.286;0.005399928
5276771.429;0.005405256
5280480;0.00541125
5282443.81;0.005418576
5283097.143;0.005425236
5280480;0.005433228
5284080;0.005439888
5292912.381;0.005445882
5307091.429;0.005451876
5306219.048;0.005459202
5312108.571;0.005467194
5316906.667;0.00547452
5323234.286;0.005482512
5338939.048;0.005489172
5346790.476;0.005495832
5354207.619;0.005501826
5352243.81;0.005507154
5357697.143;0.005512482
5361624.762;0.00551781
5363586.667;0.005523138
5366640;0.005529132
5366422.857;0.005533794
5363259.048;0.005539788
5364022.857;0.005546448
5364678.095;0.005553108
5364241.905;0.005559768
5363914.286;0.005566428
5364350.476;0.005573088
5365550.476;0.005579748
5385182.857;0.005586408
5392598.095;0.005592402
5392161.905;0.005599062
5397179.048;0.005605056
5401104.762;0.00561105
5405904.762;0.005616378
5409177.143;0.005621706
5412666.667;0.005627034
5413320;0.005631696
5409502.857;0.005637024
5409177.143;0.005641686
5409285.714;0.005647014
5405249.524;0.005653674
5403504.762;0.005659668
5407213.333;0.005665662
5406885.714;0.005671656
5405794.286;0.00567765
5404921.905;0.00568431
5406668.571;0.005691636
5419209.524;0.005698296
5417028.571;0.005705622
5421609.524;0.00571428
5426626.667;0.005722272
5441895.238;0.005729598
5449748.571;0.005735592
5448876.19;0.005742252
5466325.714;0.005748246
5473306.667;0.005754906
5470687.619;0.0057609
5474396.19;0.00576756
5476140.952;0.00577422
5479632.381;0.00578088
5482468.571;0.005788206
5484430.476;0.005796198
5488139.048;0.00580419
5490756.19;0.005811516
5506899.048;0.005818842
5513441.905;0.005825502
5512352.381;0.00583083
5520203.81;0.005835492
5533510.476;0.005841486
5530238.095;0.005846814
5531110.476;0.005851476
5530455.238;0.005856138
5527838.095;0.0058608
5530891.429;0.005866128
5531546.667;0.005870124
5530891.429;0.005874786
5529910.476;0.00588078
5529801.905;0.005886108
5529693.333;0.005892102
5529582.857;0.005898096
5528820.952;0.005902758
5528820.952;0.00590742
5529582.857;0.005912082
5531110.476;0.00591741
5536563.81;0.00592407
5531982.857;0.005931396
5532527.619;0.005938722
5534055.238;0.005946714
5536455.238;0.00595404
5553577.143;0.005962032
5564047.619;0.005970024
5572773.333;0.005978682
5583243.81;0.005986674
5594586.667;0.005995332
5605929.524;0.006003324
5617708.571;0.006011316
5622506.667;0.006019974
5623379.048;0.006027966
5642139.048;0.006036624
5653481.905;0.006045282
5664388.571;0.006055272
5673112.381;0.00606393
5671586.667;0.006071256
5688819.048;0.006077916
5704523.81;0.006085242
5714558.095;0.006091236
5710194.286;0.006097896
5716302.857;0.006105222
5719575.238;0.006111882
5721100.952;0.006119874
5722628.571;0.0061272
5725245.714;0.006131862
5727645.714;0.006137856
5728735.238;0.006144516
5732226.667;0.006151176
5732880;0.006158502
5730262.857;0.006164496
5732226.667;0.006171156
5735060.952;0.006178482
5740514.286;0.00618381
5743131.429;0.006189804
5743786.667;0.00619713
5741386.667;0.006204456
5743131.429;0.006211782
5744986.667;0.006218442
5746841.905;0.006226434
5748476.19;0.00623376
5756657.143;0.006241752
5773889.524;0.00625041
5783485.714;0.006259068
5792647.619;0.006266394
5805735.238;0.006275052
5814897.143;0.00628371
5821003.81;0.006292368
5830601.905;0.006301026
5843689.524;0.006309018
5857649.524;0.00631701
5869866.667;0.006325002
5876409.524;0.006332994
5875756.19;0.006340986
5882080;0.006348978
5887535.238;0.006356304
5892333.333;0.00636363
5898222.857;0.00637029
5913927.619;0.00637695
5909782.857;0.006381612
5913710.476;0.006387606
5913710.476;0.0063936
5909019.048;0.006399594
5911091.429;0.006404922
5912619.048;0.00641025
5912182.857;0.006415578
5910329.524;0.006420906
5909565.714;0.006426234
5907929.524;0.006431562
5903020.952;0.00643689
5905965.714;0.006442218
5904765.714;0.006448212
5903240;0.00645354
5902367.619;0.006459534
5901495.238;0.006464862
5899859.048;0.00647019
5898440;0.006476184
5898659.048;0.006482844
5898331.429;0.00649017
5897131.429;0.006498162
5897459.048;0.00650682
5903457.143;0.00651681
5920908.571;0.006526134
5933996.19;0.00653679
5946211.429;0.006547446
5952754.286;0.006556104
5962352.381;0.006564762
5981112.381;0.006572754
5997253.333;0.006581412
6004670.476;0.006588738
6012960;0.006596064
6011649.524;0.006602724
6015139.048;0.006609384
6018411.429;0.006615378
6020158.095;0.006622704
6022775.238;0.00663003
6026918.095;0.006637356
6028881.905;0.006644682
6030190.476;0.006652008
6033899.048;0.006658668
6036516.19;0.006665994
6039788.571;0.006672654
6043278.095;0.006678648
6046550.476;0.006685974
6048078.095;0.006691302
6052222.857;0.006697296
6055493.333;0.00670329
6057893.333;0.006708618
6062691.429;0.006714612
6065527.619;0.006720606
6066836.19;0.006725934
6066836.19;0.006731928
6064219.048;0.006737256
6065527.619;0.00674325
6066072.381;0.00674991
6065419.048;0.006757236
6065310.476;0.00676323
6065746.667;0.006769224
6067708.571;0.006775884
6076217.143;0.006784542
6076870.476;0.006791202
6079270.476;0.006798528
6083851.429;0.006805854
6094102.857;0.006814512
6091049.524;0.00682317
6098028.571;0.006832494
6115480;0.00683982
6130748.571;0.00684648
6144708.571;0.00685314
6152561.905;0.006860466
6148417.143;0.006867792
6150817.143;0.006875118
6153870.476;0.006881778
6165649.524;0.006888438
6171321.905;0.006894432
6168702.857;0.006899094
6171539.048;0.006905088
6173283.81;0.00691308
6175247.619;0.006920406
6178737.143;0.006927732
6182009.524;0.00693639
6185718.095;0.006944382
6189207.619;0.006951042
6192916.19;0.006957036
6197059.048;0.00696303
6200331.429;0.006968358
6204912.381;0.006972354
6207529.524;0.006977016
6206876.19;0.006981678
6194878.095;0.006985674
6185718.095;0.00698967
6187680;0.006994998
6181573.333;0.006998994
6176337.143;0.00700299
6173066.667;0.007006986
6169575.238;0.007012314
6164121.905;0.007018974
6149508.571;0.0070263
6155179.048;0.00703296
6154306.667;0.007040286
6161068.571;0.007047612
6161721.905;0.007055604
6170447.619;0.007064262
6176337.143;0.00707292
6182445.714;0.007080246
6200114.286;0.007086906
6214510.476;0.007094898
6222798.095;0.007100892
6219744.762;0.007106886
6224108.571;0.00711288
6227379.048;0.007118208
6231742.857;0.007124868
6235449.524;0.007131528
6240249.524;0.00713619
6243521.905;0.007140852
6244611.429;0.007145514
6244177.143;0.007150176
6241994.286;0.007155504
6242321.905;0.007160832
6241885.714;0.00716616
6242321.905;0.007171488
6241668.571;0.007177482
6240249.524;0.00718281
6239049.524;0.007188138
6238504.762;0.007195464
6238504.762;0.00720279
6239158.095;0.007208784
6241340.952;0.007214778
6248539.048;0.007222104
6253337.143;0.007230096
6258354.286;0.007236756
6261626.667;0.007243416
6269260.952;0.007248744
6288674.286;0.007254072
6283220.952;0.007258734
6287584.762;0.007264728
6288674.286;0.007270722
6286493.333;0.007276716
6283657.143;0.00728271
6286165.714;0.00728937
6287801.905;0.007294698
6288346.667;0.007300026
6294127.619;0.00730602
6296308.571;0.007310682
6296308.571;0.007315344
6293036.19;0.007320672
6295327.619;0.007326666
6295544.762;0.007333326
6294127.619;0.007339986
6294782.857;0.007346646
6306123.81;0.007354638
6309615.238;0.007361298
6305906.667;0.007367292
6307215.238;0.007374618
6306560;0.007381944
6309615.238;0.007389936
6326192.381;0.007396596
6321613.333;0.007403256
6328809.524;0.007409916
6334481.905;0.00741591
6338190.476;0.00742257
6344514.286;0.007429896
6346480;0.007436556
6347350.476;0.007443882
6350405.714;0.007449876
6361529.524;0.007457202
6369819.048;0.007464528
6366982.857;0.007470522
6372217.143;0.007477182
6377670.476;0.007485174
6381815.238;0.007491168
6389013.333;0.007496496
6394249.524;0.007501824
6399047.619;0.007508484
6401447.619;0.007514478
6402100.952;0.007520472
6405373.333;0.0075258
6408428.571;0.007530462
6411045.714;0.007535124
6414099.048;0.007540452
6408973.333;0.007545114
6407881.905;0.00754911
6407992.381;0.007555104
6402537.143;0.007559766
6402100.952;0.00756576
6405047.619;0.00757242
6403956.19;0.007578414
6403300.952;0.007583742
6404064.762;0.007591734
6410607.619;0.007599726
6415624.762;0.007607718
6419769.524;0.00761571
6426750.476;0.00762237
6449653.333;0.007630362
6461868.571;0.00763902
6466232.381;0.00764901
6465360;0.007657668
6473430.476;0.007667658
6498952.381;0.007676982
6505931.429;0.007684308
6514220.952;0.007691634
6529925.714;0.007698294
6539523.81;0.007704288
6536687.619;0.007711614
6543013.333;0.00771894
6545630.476;0.0077256
6547811.429;0.007733592
6551739.048;0.007740918
6556100.952;0.007748244
6561554.286;0.00775557
6566352.381;0.007763562
6571369.524;0.007770888
6575733.333;0.007777548
6582059.048;0.007784874
6587512.381;0.0077922
6591001.905;0.007798194
6596238.095;0.007804188
6600380.952;0.007810848
6602998.095;0.007818174
6604089.524;0.007824834
6604308.571;0.00783216
6603325.714;0.007839486
6617613.333;0.007847478
6614777.143;0.007854804
6620230.476;0.007861464
6622630.476;0.007867458
6626339.048;0.007873452
6630047.619;0.007880778
6632228.571;0.00788877
6634626.667;0.007899426
6636809.524;0.00790875
6641390.476;0.007918074
6657314.286;0.007926732
6671274.286;0.007936056
6687851.429;0.007944714
6697885.714;0.007951374
6695268.571;0.007959366
6702466.667;0.007967358
6706175.238;0.007974684
6712937.143;0.00798201
6730169.524;0.007989336
6736712.381;0.007996662
6745874.286;0.008003322
6743691.429;0.00800865
6748274.286;0.008013978
6751327.619;0.008019972
6751763.81;0.008026632
6752853.333;0.00803196
6751544.762;0.00803862
6753508.571;0.008043948
6753291.429;0.00804861
6753617.143;0.008054604
6752527.619;0.008061264
6752853.333;0.008067258
6753400;0.008074584
6753400;0.008081244
6752089.524;0.008087238
6752963.81;0.008092566
6755472.381;0.008096562
6762451.429;0.00810189
6766815.238;0.008107218
6766377.143;0.008112546
6759942.857;0.00811854
6759615.238;0.0081252
6750455.238;0.008132526
6749582.857;0.008137854
6751327.619;0.008143848
6754817.143;0.008150508
6758742.857;0.008157834
6761142.857;0.008166492
6763979.048;0.008174484
6770304.762;0.008182476
6782956.19;0.008190468
6781864.762;0.008197794
6798660.952;0.008206452
6804769.524;0.008215776
6805641.905;0.008225766
6825272.381;0.008235756
6834434.286;0.008244414
6841415.238;0.008253072
6857120;0.00826173
6871080;0.008269722
6879805.714;0.008277714
6889840;0.008285706
6886784.762;0.008293698
6892238.095;0.008300358
6897910.476;0.008307018
6912087.619;0.008313678
6908380.952;0.008319672
6911651.429;0.008325666
6914051.429;0.00833166
6913834.286;0.008337654
6909906.667;0.008344314
6911325.714;0.008349642
6911651.429;0.00835497
6911542.857;0.008360298
6911979.048;0.008365626
6912198.095;0.008370954
6911979.048;0.008375616
6912198.095;0.008380278
6912415.238;0.008384274
6912306.667;0.008389602
6911542.857;0.008396262
6905325.714;0.008402922
6903800;0.008409582
6902927.619;0.008416242
6905872.381;0.008423568
6905544.762;0.00843156
6907289.524;0.008440218
6926049.524;0.00844821
6936956.19;0.008456202
6945680;0.008462196
6954405.714;0.008468856
6953097.143;0.008475516
6958550.476;0.008482176
6964003.81;0.008490834
6968365.714;0.008500158
6971201.905;0.00850815
6975127.619;0.008515476
6982108.571;0.00852147
7003702.857;0.008527464
7007628.571;0.008533458
7003702.857;0.008540118
7002394.286;0.008547444
6999340.952;0.008556102
6999013.333;0.008563428
7002939.048;0.008572086
7005447.619;0.008580078
7016137.143;0.008587404
7030752.381;0.008594064
7038167.619;0.008598726
7046457.143;0.008604054
7043620.952;0.008610048
7045584.762;0.008615376
7045801.905;0.00862137
7040240;0.008626698
7041874.286;0.008632026
7042420.952;0.00863802
7038167.619;0.008642682
7040348.571;0.008648676
7039257.143;0.00865467
7037622.857;0.008660664
7034895.238;0.008666658
7029224.762;0.008673318
7029005.714;0.008678646
7028352.381;0.00868464
7031186.667;0.008691966
7030969.524;0.008698626
7029550.476;0.008706618
7030205.714;0.008713944
7032822.857;0.008720604
7035222.857;0.00872793
7043620.952;0.00873459
7051255.238;0.008740584
7064342.857;0.008746578
7059980.952;0.00875457
7062598.095;0.008762562
7063906.667;0.008769888
7066960;0.008775216
7070887.619;0.00878121
7077430.476;0.008787204
7082230.476;0.008793864
7087464.762;0.008799858
7092045.714;0.008805186
7094009.524;0.008809848
7093790.476;0.00881451
7090409.524;0.008819838
7092373.333;0.008825166
7092590.476;0.00883116
7091281.905;0.008837154
7084847.619;0.008842482
7085064.762;0.008847144
7088120;0.008851806
7087573.333;0.008855802
7086047.619;0.008860464
7084737.143;0.008866458
7083211.429;0.008872452
7077649.524;0.008879112
7074377.143;0.008885106
7072632.381;0.0088911
7072849.524;0.00889776
7075685.714;0.008905086
7075249.524;0.008911746
7081139.048;0.008919072
7100116.19;0.008925732
7103605.714;0.008931726
7102952.381;0.00893772
7107750.476;0.008943714
7110803.81;0.008949042
7112550.476;0.00895437
7112986.667;0.008959698
7115603.81;0.008965026
7127163.81;0.008970354
7116259.048;0.008976348
7116476.19;0.008982342
7116148.571;0.008989002
7116259.048;0.008996328
7118657.143;0.00900432
7120184.762;0.009011646
7125419.048;0.009018306
7129344.762;0.009024966
7133925.714;0.009032292
7149849.524;0.009039618
7158139.048;0.00904761
7155302.857;0.00905427
7158575.238;0.009061596
7162937.143;0.009068922
7166209.524;0.009076248
7180388.571;0.009083574
7189548.571;0.009090234
7196965.714;0.009096894
7193476.19;0.009103554
7197182.857;0.00911088
7200019.048;0.009118206
7203727.619;0.009125532
7208744.762;0.00913086
7212670.476;0.009136854
7214417.143;0.009143514
7214417.143;0.009150174
7211472.381;0.009154836
7214961.905;0.009159498
7216815.238;0.009164826
7217579.048;0.009170154
7221832.381;0.009175482
7218234.286;0.009180144
7218561.905;0.009184806
7218668.571;0.0091908
7218123.81;0.009196794
7216706.667;0.009202122
7216596.19;0.009208116
7216923.81;0.00921411
7217687.619;0.009219438
7221832.381;0.009224766
7218779.048;0.009228762
7218779.048;0.009233424
7219760;0.009239418
7220851.429;0.009246078
7220304.762;0.009252738
7218887.619;0.009258732
7218123.81;0.009265392
7219323.81;0.009272052
7220196.19;0.009279378
7230339.048;0.009288702
7244518.095;0.009296028
7243645.714;0.00930402
7260659.048;0.009312012
7272874.286;0.00932067
7282036.19;0.009328662
7278982.857;0.00933732
7288144.762;0.00934398
7310830.476;0.009351306
7322171.429;0.009357966
7327843.81;0.00936396
7327188.571;0.009371286
7329588.571;0.009379278
7330897.143;0.00938727
7331116.19;0.009395928
7335041.905;0.009403254
7358817.143;0.009411246
7368851.429;0.009418572
7366234.286;0.009426564
7374960;0.009433224
7379758.095;0.009439218
7385866.667;0.009445878
7392409.524;0.009452538
7395245.714;0.009459198
7395900.952;0.009465858
7396990.476;0.00947385
7394373.333;0.009481176
7397099.048;0.009488502
7403752.381;0.009495162
7409205.714;0.009501822
7413350.476;0.009508482
7420767.619;0.009515142
7425129.524;0.009522468
7430146.667;0.009529128
7434291.429;0.009535788
7434291.429;0.009541782
7437344.762;0.009548442
7438434.286;0.009555102
7437017.143;0.009562428
7442798.095;0.009569088
7445851.429;0.009575748
7449342.857;0.00958374
7451523.81;0.009592398
7455449.524;0.00960039
7470937.143;0.009607716
7480099.048;0.009614376
7476607.619;0.009622368
7484460.952;0.009629694
7489478.095;0.009637686
7505400;0.00964368
7513689.524;0.00965034
7511508.571;0.009657666
7517398.095;0.009665658
7522632.381;0.009674316
7528085.714;0.009682974
7533321.905;0.0096903
7540956.19;0.009695628
7556880;0.009701622
7553390.476;0.009707616
7558188.571;0.009712944
7560369.524;0.009718272
7561897.143;0.0097236
7561022.857;0.00973026
7559169.524;0.009737586
7558624.762;0.00974358
7554260.952;0.009749574
7558405.714;0.009754902
7558624.762;0.00976023
7558188.571;0.009766224
7557752.381;0.009771552
7557207.619;0.009777546
7558080;0.00978354
7559497.143;0.009789534
7559388.571;0.009796194
7558733.333;0.009802854
7558841.905;0.009809514
7559933.333;0.009816174
7560041.905;0.009822834
7562005.714;0.00983016
7566695.238;0.009837486
7569095.238;0.009844812
7574329.524;0.009852804
7591342.857;0.009860796
7600068.571;0.00987012
7597670.476;0.009878778
7603340.952;0.009887436
7608140.952;0.00989676
7623626.667;0.009905418
7631480;0.00991341
7630826.667;0.009921402
7636933.333;0.009929394
7643478.095;0.009938052
7658527.619;0.00994671
7664634.286;0.009954036
7679468.571;0.009961362
7695173.333;0.009967356
7703462.857;0.009974682
7700845.714;0.009982008
7704116.19;0.009988668
7704988.571;0.009995994
7706080;0.010002654
7709133.333;0.010009312
7707497.143;0.010015308
7713933.333;0.010021302
7715678.095;0.010026628
7711533.333;0.010031292
7713060.952;0.010037286
7714805.714;0.010043278
7715024.762;0.010049272
7714586.667;0.010055932
7715678.095;0.010062594
7715459.048;0.010069254
7715024.762;0.010075248
7717097.143;0.010081242
7718514.286;0.010087902
7725057.143;0.010094562
7728984.762;0.010101886
7727457.143;0.010109214
7723748.571;0.010117206
7726146.667;0.01012453
7729201.905;0.010133188
7746215.238;0.010142514
7754940.952;0.01015317
7765411.429;0.010161826
7781116.19;0.010170484
7795514.286;0.010177812
7808165.714;0.010185136
7815144.762;0.010191798
7813182.857;0.010199788
7815798.095;0.010207116
7817108.571;0.010213776
7818417.143;0.01021977
7816672.381;0.01022643
7819072.381;0.010232424
7819834.286;0.010238418
7820053.333;0.010245078
7820270.476;0.010252404
7820489.524;0.010259064
7820270.476;0.010265058
7820815.238;0.010270386
7821253.333;0.010275046
7826923.81;0.010279042
7829323.81;0.010285702
7828668.571;0.01029303
7823870.476;0.010299024
7824087.619;0.010303686
7819942.857;0.010309014
7818634.286;0.010313676
7814491.429;0.010318338
7799440;0.010322334
7802929.524;0.010326994
7798348.571;0.010331656
7795076.19;0.01033632
7790933.333;0.010341646
7787660.952;0.010346976
7782643.81;0.010353636
7780462.857;0.010361628
7778935.238;0.010370286
7779807.619;0.010378278
7783624.762;0.010384938
7805110.476;0.010391596
7814708.571;0.010397592
7811436.19;0.01040425
7817980.952;0.010410246
7821689.524;0.010417572
7823870.476;0.010424232
7828232.381;0.010430226
7832160;0.010438216
7835430.476;0.010445544
7838483.81;0.010452202
7842847.619;0.010458862
7854843.81;0.010465524
7852226.667;0.010471516
7858335.238;0.010478178
7862043.81;0.010483506
7866841.905;0.010487502
7871422.857;0.01049416
7874476.19;0.010500156
7876001.905;0.010506814
7874912.381;0.010512808
7872186.667;0.010518138
7874040;0.010524132
7875240;0.010530124
7875020.952;0.010536118
7874584.762;0.010542112
7874259.048;0.010550106
7874259.048;0.010558098
7875348.571;0.010564758
7878184.762;0.010571416
7896289.524;0.010578744
7894108.571;0.010584738
7898470.476;0.010591398
7901087.619;0.01059606
7902834.286;0.010601388
7902834.286;0.010606716
7900760;0.010612044
7901632.381;0.01061737
7901523.81;0.010622032
7900979.048;0.010626696
7900434.286;0.010631358
7899670.476;0.010637352
7898034.286;0.010643346
7895525.714;0.010650006
7888219.048;0.010656
7888219.048;0.01066266
7900215.238;0.01066932
7893780.952;0.010676646
7902615.238;0.010683306
7905887.619;0.010689966
7907413.333;0.010696626
7908940.952;0.010703284
7906213.333;0.010709944
7909158.095;0.010716606
7925081.905;0.01072393
7932497.143;0.01073059
7930535.238;0.010737918
7935988.571;0.010745242
7940788.571;0.01075257
7943841.905;0.010759894
7949512.381;0.010767222
7964344.762;0.010774546
7970017.143;0.01078054
7969361.905;0.010786534
7972634.286;0.01079253
7974598.095;0.01079719
7978742.857;0.01080252
7981358.095;0.010807846
7984413.333;0.01081384
7984849.524;0.010819836
7981358.095;0.01082583
7981904.762;0.01083049
7983758.095;0.010836486
7984740.952;0.010841814
7984849.524;0.01084714
7985285.714;0.01085247
7984958.095;0.010858464
7985613.333;0.010863126
7986596.19;0.010868452
7987358.095;0.010873782
7988230.476;0.010879108
7989539.048;0.010884438
7989102.857;0.010890432
7988666.667;0.010895758
7989866.667;0.010901088
7990847.619;0.010907746
7990739.048;0.010915074
7990411.429;0.010921734
7990958.095;0.010928394
8003607.619;0.010936386
8011460.952;0.010945044
8018878.095;0.0109537
8028040;0.010961694
8034146.667;0.010969686
8035238.095;0.010977678
8054651.429;0.010985004
8059449.524;0.010992996
8059885.714;0.011001654
8077335.238;0.011009646
8086060.952;0.01101697
8099150.476;0.011024962
8107001.905;0.011032956
8101767.619;0.011040282
8108529.524;0.011048272
8111146.667;0.0110556
8116819.048;0.01106226
8122270.476;0.011069586
8127506.667;0.011076246
8131432.381;0.01108224
8136013.333;0.011087566
8141247.619;0.011093562
8142339.048;0.01110022
8141902.857;0.01110688
8137758.095;0.011114208
8140158.095;0.011120202
8152809.524;0.011126862
8160662.857;0.01113352
8155426.667;0.011140848
8155209.524;0.011146174
8152809.524;0.011152834
8151937.143;0.011158828
8154990.476;0.011165488
8156954.286;0.01117215
8156518.095;0.01117881
8156626.667;0.011186134
8157281.905;0.011193462
8160662.857;0.011201454
8177240;0.011209444
8187710.476;0.011215438
8184438.095;0.0112221
8191200;0.011230758
8196434.286;0.01123875
8209960;0.011248074
8208651.429;0.011256066
8216721.905;0.011265388
8236571.429;0.011274714
8245297.143;0.011282706
8255767.619;0.011290696
8268419.048;0.011298688
8281070.476;0.011306016
8289358.095;0.01131334
8287177.143;0.011320668
8295683.81;0.011327992
8299392.381;0.011334652
8302445.714;0.01134198
8303754.286;0.011349304
8304409.524;0.011355298
8307681.905;0.011361292
8311826.667;0.011367288
8315533.333;0.011373946
8316188.571;0.011380606
8315533.333;0.011387934
8313788.571;0.011394592
8316080;0.011400588
8318152.381;0.011407246
8319243.81;0.011414574
8326222.857;0.011421234
8327531.429;0.01142656
8323822.857;0.011431224
8325676.19;0.011435886
8326659.048;0.011439882
8327203.81;0.011445208
8325895.238;0.011450538
8319024.762;0.011456532
8313788.571;0.011463856
8308335.238;0.011470516
8305718.095;0.011477844
8305500.952;0.011485168
8310080;0.011492496
8308880;0.011501818
8314224.762;0.011510478
8319243.81;0.011520466
8325567.619;0.011529124
8341710.476;0.01153845
8353925.714;0.011547108
8366577.143;0.0115551
8377481.905;0.011563092
8384899.048;0.01157175
8384243.81;0.011580408
8391880;0.0115884
8411946.667;0.011595724
8418055.238;0.011603052
8416527.619;0.011609712
8422853.333;0.01161637
8422200;0.011623698
8426125.714;0.011631022
8428089.524;0.011637682
8426017.143;0.011644344
8433104.762;0.011650336
8435942.857;0.011657664
8435723.81;0.011663658
8432887.619;0.011670982
8435396.19;0.011676976
8436160;0.011683636
8438123.81;0.01168963
8439540.952;0.01169629
8440958.095;0.011702952
8448156.19;0.011709612
8450120;0.011716272
8454918.095;0.01172293
8459281.905;0.01172959
8460154.286;0.011736918
8462118.095;0.011744242
8458626.667;0.011750904
8461899.048;0.011758228
8469533.333;0.011764888
8472150.476;0.011771548
8477167.619;0.01177954
8481093.333;0.011786868
8483057.143;0.01179486
8487201.905;0.011803518
8492219.048;0.01181284
8510104.762;0.011820834
8517958.095;0.011827492
8526683.81;0.01183482
8523628.571;0.01184148
8529520;0.011847474
8532790.476;0.011854134
8532137.143;0.011860128
8534535.238;0.011866122
8531262.857;0.011871448
8532245.714;0.011878776
8531045.714;0.0118861
8531154.286;0.011894758
8529520;0.01190275
8528100.952;0.01190941
8529081.905;0.011916072
8548495.238;0.011924062
8557220.952;0.01193139
8549586.667;0.011938714
8551769.524;0.011945376
8550459.048;0.011950038
8553078.095;0.011954034
8557657.143;0.01195803
8559401.905;0.011962026
8544133.333;0.011966688
8529737.143;0.011972014
8522320;0.011977344
8524066.667;0.01198134
8519485.714;0.011986666
8515558.095;0.01199266
8511415.238;0.01199799
8508140.952;0.012003316
8502908.571;0.01200798
8500508.571;0.012013972
8497453.333;0.012019966
8493963.81;0.01202596
8492655.238;0.012031954
8491346.667;0.012039282
8495272.381;0.012045942
8495925.714;0.012052602
8502034.286;0.012058596
8505306.667;0.01206592
8509668.571;0.012073912
8511415.238;0.01208257
8514904.762;0.012089898
8521447.619;0.012096558
8538899.048;0.012101218
8546316.19;0.012106548
8543043.81;0.012111874
8546969.524;0.012117868
8547186.667;0.012123198
8545005.714;0.012129192
8543369.524;0.012135186
8544024.762;0.012141846
8539552.381;0.012148506
8543260.952;0.0121545
8543260.952;0.01216116
8542607.619;0.012167818
8542497.143;0.012173814
8544024.762;0.012181138
8545878.095;0.012186468
8547841.905;0.012193126
8555695.238;0.01219912
8559840;0.01220445
8563546.667;0.01221111
8566601.905;0.012216436
8565727.619;0.012221766
8562565.714;0.01222776
8564310.476;0.012233754
8565291.429;0.012239748
8565182.857;0.012245074
8564201.905;0.012250404
8561693.333;0.012255066
8555259.048;0.01226106
8555476.19;0.012267054
8554167.619;0.01227238
8556567.619;0.01227771
8555912.381;0.012283036
8555803.81;0.01228903
8555150.476;0.01229436
8555367.619;0.012300354
8554059.048;0.01230768
8552750.476;0.012315672
8553840;0.012323664
8561582.857;0.012330324
8559840;0.012337648
8566165.714;0.012343642
8569219.048;0.012349636
8574017.143;0.012355632
8579689.524;0.01236229
8581434.286;0.012369618
8582089.524;0.012376278
8582089.524;0.012382938
8580780.952;0.012388932
8582089.524;0.012394926
8583396.19;0.01240225
8584923.81;0.01240891
8585032.381;0.012415572
8585251.429;0.012422232
8587213.333;0.012428892
8589721.905;0.012434886
8590813.333;0.01244221
8595613.333;0.012448872
8592885.714;0.012454864
8594958.095;0.012460858
8596594.286;0.012466852
8598339.048;0.012472846
8605645.714;0.012479506
8607609.524;0.0124855
8610009.524;0.01249083
8613281.905;0.012496824
8614588.571;0.01250215
8616116.19;0.012508146
8613499.048;0.01251414
8614916.19;0.012520134
8615026.667;0.012524796
8615680;0.012528792
8616007.619;0.012534118
8615462.857;0.012539448
8613388.571;0.012544776
8606737.143;0.012549438
8603247.619;0.012554764
8599975.238;0.012560094
8595394.286;0.01256542
8591032.381;0.01257075
8588196.19;0.012577408
8589287.619;0.012584068
8593866.667;0.01259206
8593540.952;0.012600054
8598666.667;0.012608046
8599320;0.012617368
8603028.571;0.012626694
8619169.524;0.012635352
8635312.381;0.012643344
8645346.667;0.012651336
8651017.143;0.012659326
8652325.714;0.012669316
8668904.762;0.012677974
8676756.19;0.012686632
8675228.571;0.012694624
8682209.524;0.012700618
8696824.762;0.012707946
8704676.19;0.01271527
8701841.905;0.012722598
8704459.048;0.012731256
8704676.19;0.012737916
8703803.81;0.012742576
8703695.238;0.012748572
8705986.667;0.012754566
8706095.238;0.01276056
8705331.429;0.012767884
8702495.238;0.012775876
8685918.095;0.012783204
8691371.429;0.012790528
8686790.476;0.012797188
8686135.238;0.01280518
8690390.476;0.012812508
8688426.667;0.012821166
8683190.476;0.012829158
8573363.81;0.012837148
8500944.762;0.012844476
8466043.81;0.0128518
8452083.81;0.012859128
8427217.143;0.01286712
8409329.524;0.01287378
8394933.333;0.012880438
8380100.952;0.012887098
8367885.714;0.01289376
8352615.238;0.012901086
8336038.095;0.012909078
8328184.762;0.012915738
8329931.429;0.01292373
8323386.667;0.012931054
8318369.524;0.012937048
8311390.476;0.012944376
8295900.952;0.012951036
8296775.238;0.012961026
8279323.81;0.012971682
8273217.143;0.01298034
8276489.524;0.012986998
8275834.286;0.012994326
8277142.857;0.01300165
8278234.286;0.013008978
8260129.524;0.013014304
8255767.619;0.013020298
8256638.095;0.013027626
8239188.571;0.013035616
8221739.048;0.013042944
8211268.571;0.013049602
8206032.381;0.013056262
8204506.667;0.013061592
8180293.333;0.013066918
8164152.381;0.013072912
8154554.286;0.013078242
8140594.286;0.013083568
8121834.286;0.013089562
8097840;0.013094892
8048106.667;0.013099554
8036765.714;0.013104214
8016695.238;0.013110208
7972198.095;0.013116204
7924209.524;0.013122198
7885819.048;0.013128192
7839575.238;0.013135516
7784607.619;0.013142844
7735746.667;0.013150168
7696483.81;0.013158162
7663325.714;0.013166154
7648929.524;0.013174812
7603123.81;0.013182804
7557752.381;0.013191462
7482716.19;0.013200118
7270693.333;0.013208776
6878060.952;0.013218102
5715866.667;0.01323142
