Stress;Strain
652643.619;0.000114552
670093.9048;0.00012321
691470.6667;0.000132534
735532.7619;0.000142524
750365.5238;0.000151182
771305.9048;0.000159174
788756.381;0.0001665
814059.4286;0.000172494
834999.8095;0.000178488
848087.619;0.00018315
861611.619;0.000189144
873390.6667;0.00019647
877753.1429;0.000203796
880807.0476;0.00020979
904801.3333;0.00021645
915707.8095;0.00022311
923560.381;0.000230436
936212;0.000237096
952789.7143;0.00024309
965005.1429;0.000251082
981582.8571;0.000259074
997288.381;0.000265734
1007322.095;0.000272394
1022154.857;0.000280386
1040477.905;0.000287712
1053129.333;0.00029637
1060545.714;0.000305694
1097627.81;0.000315684
1108534.286;0.00032301
1126857.143;0.000330336
1141253.714;0.000336996
1154341.524;0.000344988
1168301.714;0.000352314
1183134.476;0.000358974
1199276.19;0.000367632
1214108.952;0.000377622
1227196.762;0.000388278
1243338.286;0.000398934
1265151.238;0.000408924
1290454.286;0.000418248
1333207.81;0.000426906
1344986.667;0.000434898
1369417.143;0.000441558
1387303.81;0.000447552
1399519.048;0.000454878
1413043.238;0.000462204
1420459.429;0.000468198
1420023.238;0.000473526
1439218.667;0.000478854
1448380.19;0.000484182
1454487.81;0.000490176
1464957.905;0.00049617
1476736.952;0.000502164
1483280.762;0.000507492
1495059.81;0.00051282
1508583.81;0.000518148
1515127.81;0.00052281
1515782.095;0.000527472
1521671.619;0.000533466
1527124.952;0.000538128
1533014.476;0.000543456
1549592.19;0.000548118
1557444.762;0.000554112
1553300.381;0.00055944
1559408;0.0005661
1572277.714;0.000573426
1584492.952;0.000580086
1597144.571;0.000586746
1607178.476;0.000593406
1615467.238;0.000600066
1630300.19;0.000607392
1647750.476;0.00061605
1663455.81;0.000625374
1675671.238;0.000633366
1686141.333;0.000642024
1707081.714;0.000651348
1733257.333;0.000660672
1751580;0.000669996
1764667.81;0.000678654
1782554.667;0.00068598
1800441.143;0.000693972
1813092.762;0.000701298
1826180.381;0.000707958
1841013.143;0.000713952
1857591.048;0.000719946
1868497.524;0.000725274
1864353.143;0.000731934
1871115.238;0.000740592
1876132.19;0.000747918
1892491.619;0.00075591
1907323.81;0.00076257
1924339.048;0.000770562
1938735.238;0.000777888
1951822.857;0.000785214
1965346.667;0.000791874
1974944.762;0.0007992
1982798.095;0.000806526
1996758.095;0.000814518
2008100.952;0.000821178
2018135.238;0.000828504
2031222.857;0.000835164
2043001.905;0.000840492
2054344.762;0.000846486
2062196.19;0.000853146
2070049.524;0.000859806
2077902.857;0.000866466
2077466.667;0.000873126
2095352.381;0.000879786
2108876.19;0.000886446
2118910.476;0.000893106
2126325.714;0.0008991
2136360;0.000905094
2148575.238;0.000910422
2159918.095;0.000916416
2155556.19;0.000921078
2161881.905;0.00092574
2167771.429;0.0009324
2179986.667;0.000939726
2178022.857;0.000947052
2184567.619;0.000955044
2198744.762;0.00096237
2208779.048;0.00096903
2222302.857;0.00097569
2240190.476;0.000981018
2252405.714;0.000987678
2258512.381;0.00099567
2259603.81;0.001002996
2274655.238;0.001009656
2283817.143;0.001014984
2293849.524;0.001021644
2303447.619;0.00102897
2314354.286;0.001036962
2323952.381;0.001042956
2334859.048;0.00104895
2345765.714;0.001056276
2352744.762;0.00106227
2351219.048;0.00106893
2357106.667;0.001074924
2362560;0.001080918
2367140.952;0.001088244
2371940.952;0.001094238
2374558.095;0.001100898
2377175.238;0.001106226
2392009.524;0.00111222
2409895.238;0.001116882
2420365.714;0.00112221
2416874.286;0.001128204
2422546.667;0.001134864
2425600;0.00114219
2429527.619;0.001150182
2444360;0.001157508
2454830.476;0.001164834
2464862.857;0.001170828
2474460.952;0.001178154
2482314.286;0.001186146
2491476.19;0.001192806
2501946.667;0.001200132
2509798.095;0.001206126
2509361.905;0.001212786
2526813.333;0.00121878
2535100.952;0.00122544
2533792.381;0.001232766
2540554.286;0.00123876
2547535.238;0.001244754
2565203.81;0.001249416
2570438.095;0.001254744
2572182.857;0.001259406
2589634.286;0.001264734
2583744.762;0.00127206
2590506.667;0.001279386
2592032.381;0.001284714
2594868.571;0.001290708
2602285.714;0.001296702
2617990.476;0.00130203
2613845.714;0.001307358
2621699.048;0.001312686
2636314.286;0.001317348
2632386.667;0.00132201
2641548.571;0.00132867
2646565.714;0.001333998
2650491.429;0.001339992
2654200;0.001347318
2657908.571;0.001354644
2660525.714;0.001360638
2664670.476;0.001366632
2671868.571;0.001371294
2687356.19;0.00137529
2684520;0.001379952
2692590.476;0.001383948
2706988.571;0.00138861
2704369.524;0.001393272
2707859.048;0.001399266
2707422.857;0.001405926
2702952.381;0.001412586
2705897.143;0.001419246
2709278.095;0.001426572
2717676.19;0.0014319
2738398.095;0.001437228
2750177.143;0.001443222
2753666.667;0.001449882
2753013.333;0.001456542
2755411.429;0.001463202
2758902.857;0.001469862
2763483.81;0.001475856
2777660.952;0.001482516
2775480;0.001489842
2783114.286;0.001497168
2803836.19;0.00150516
2815179.048;0.001513152
2810380.952;0.001521144
2820196.19;0.00152847
2843100.952;0.001535796
2852260.952;0.001543122
2860114.286;0.001550448
2871020.952;0.001557774
2881055.238;0.001565766
2888470.476;0.001573092
2888253.333;0.001580418
2895451.429;0.001587744
2914647.619;0.001593738
2925116.19;0.001599066
2922062.857;0.00160506
2940822.857;0.001609722
2947801.905;0.00161505
2944312.381;0.001620378
2948457.143;0.00162504
2949984.762;0.001629702
2954127.619;0.001634364
2958055.238;0.001640358
2961325.714;0.001647018
2961763.81;0.001653012
2957619.048;0.00165834
2960672.381;0.001663668
2978340.952;0.001668996
2973760;0.001674324
2979213.333;0.001678986
2984666.667;0.001684314
2986847.619;0.001689642
2990556.19;0.001696968
2995137.143;0.001703628
2998190.476;0.001709622
3001899.048;0.001716282
3008441.905;0.001722942
3022838.095;0.001730268
3032436.19;0.001738926
3040289.524;0.001746252
3048579.048;0.001752912
3060794.286;0.001760238
3066464.762;0.001769562
3067773.333;0.00177822
3092640;0.001786878
3107474.286;0.001796202
3120561.905;0.001805526
3137139.048;0.001814184
3151099.048;0.001822176
3165931.429;0.001829502
3179019.048;0.001836162
3187744.762;0.001843488
3195161.905;0.001850148
3192980.952;0.001857474
3198215.238;0.001865466
3201268.571;0.001872792
3206504.762;0.001880118
3225699.048;0.001886778
3237914.286;0.001892772
3245767.619;0.001899432
3256674.286;0.001905426
3261036.19;0.00191142
3257982.857;0.00191808
3263000;0.00192474
3263000;0.001930068
3264744.762;0.001937394
3267580.952;0.001944054
3266053.333;0.001950714
3274779.048;0.001958706
3293756.19;0.001966032
3302918.095;0.001973358
3300299.048;0.00198135
3307280;0.001990008
3312078.095;0.001998666
3318186.667;0.00200799
3335200;0.002015316
3352215.238;0.00202131
3367483.81;0.00202797
3371409.524;0.002037294
3370537.143;0.002046618
3374900.952;0.002055942
3391914.286;0.002063934
3408055.238;0.00207126
3418089.524;0.002078586
3430304.762;0.002085246
3442956.19;0.002093238
3449937.143;0.002099898
3446447.619;0.002106558
3453426.667;0.002113218
3469131.429;0.002118546
3474367.619;0.00212454
3474584.762;0.002131866
3478293.333;0.002139858
3481565.714;0.002146518
3485927.619;0.002151846
3489200;0.002159172
3495306.667;0.002166498
3501634.286;0.002172492
3506649.524;0.00217782
3510577.143;0.002182482
3512975.238;0.002187144
3514285.714;0.002193138
3517120;0.002199798
3519739.048;0.002205792
3520828.571;0.00221112
3523228.571;0.002216448
3524754.286;0.002223108
3522245.714;0.002229102
3523664.762;0.00223443
3526173.333;0.002240424
3528245.714;0.002247084
3537843.81;0.002253744
3543078.095;0.00226107
3546786.667;0.002268396
3549403.81;0.002276388
3554638.095;0.002285046
3576451.429;0.00229437
3583432.381;0.002303694
3582340.952;0.002313018
3604371.429;0.002322342
3619205.714;0.002331666
3627493.333;0.002339658
3645380.952;0.00234765
3664577.143;0.002356308
3673300.952;0.002362968
3671775.238;0.002369628
3679845.714;0.002375622
3685080;0.002382948
3686388.571;0.002390274
3687260.952;0.002396268
3687916.19;0.002402928
3687260.952;0.002408256
3689552.381;0.002412918
3697078.095;0.002418246
3697731.429;0.002423574
3699476.19;0.002428902
3702748.571;0.002435562
3700676.19;0.002441556
3705584.762;0.002448882
3707329.524;0.002455542
3706238.095;0.002461536
3721725.714;0.002468196
3733940.952;0.002475522
3740049.524;0.002482848
3736560;0.002490174
3741794.286;0.0024975
3744411.429;0.002503494
3749864.762;0.002509488
3755754.286;0.002515482
3760771.429;0.002522142
3766660.952;0.002528802
3783238.095;0.002535462
3793708.571;0.002543454
3790655.238;0.002551446
3797198.095;0.002558772
3801561.905;0.002565432
3807232.381;0.002573424
3824247.619;0.002582082
3829045.714;0.00259074
3829700.952;0.002599398
3848241.905;0.002608722
3861765.714;0.002616048
3867000;0.002622042
3868308.571;0.002629368
3887940.952;0.002636028
3891866.667;0.002642022
3890340.952;0.002648016
3892521.905;0.002654676
3893830.476;0.002662002
3895575.238;0.002669328
3893721.905;0.002676654
3901900.952;0.00268398
3906481.905;0.00269064
3911716.19;0.0026973
3917169.524;0.002702628
3918260.952;0.002707956
3920005.714;0.00271395
3919569.524;0.002719278
3918805.714;0.00272394
3920878.095;0.002728602
3922841.905;0.002735262
3929167.619;0.002741922
3929822.857;0.002749248
3931567.619;0.00275391
3933529.524;0.002758572
3931240;0.002764566
3932657.143;0.002769894
3934293.333;0.002774556
3935493.333;0.002778552
3935601.905;0.002783214
3935710.476;0.002789208
3934620.952;0.002795868
3927422.857;0.002802528
3927203.81;0.002807856
3932548.571;0.00281385
3932440;0.002821176
3937238.095;0.002827836
3940291.429;0.00283383
3944872.381;0.00284049
3949017.143;0.002848482
3956651.429;0.002855142
3971266.667;0.002862468
3966466.667;0.002869794
3971920;0.00287712
3986099.048;0.00288378
3999622.857;0.002889774
4007912.381;0.0028971
4006167.619;0.002904426
4013582.857;0.002909754
4020127.619;0.002916414
4034960;0.002921076
4032123.81;0.002925738
4038232.381;0.0029304
4043030.476;0.002935062
4044775.238;0.00294039
4044775.238;0.002945718
4039868.571;0.002952378
4040849.524;0.002959704
4035615.238;0.00296703
4036704.762;0.002974356
4041721.905;0.002981016
4058954.286;0.002986344
4066371.429;0.002993004
4066152.381;0.00300033
4072041.905;0.003006324
4076622.857;0.003012984
4081203.81;0.003019644
4084257.143;0.003026304
4087746.667;0.003032298
4092546.667;0.003037626
4098000;0.00304362
4113487.619;0.003048948
4108470.476;0.003054276
4109123.81;0.003058938
4109779.048;0.003064266
4106942.857;0.003068928
4109123.81;0.003074922
4111415.238;0.003080916
4112179.048;0.00308691
4111740.952;0.00309357
4117630.476;0.00310023
4116977.143;0.003106224
4125264.762;0.003112218
4130500.952;0.003118878
4133554.286;0.003125538
4134645.714;0.003132198
4137918.095;0.003138192
4152750.476;0.003144852
4148386.667;0.003150846
4156459.048;0.003157506
4160601.905;0.003164166
4166491.429;0.003171492
4171291.429;0.003178818
4174563.81;0.00318681
4178489.524;0.003194136
4181979.048;0.003201462
4198558.095;0.003208788
4204228.571;0.003216114
4202700.952;0.00322344
4207500.952;0.003230766
4212299.048;0.003238092
4228222.857;0.003244086
4233457.143;0.00325008
4231931.429;0.00325674
4236729.524;0.003262734
4239346.667;0.003268728
4242401.905;0.003274722
4246544.762;0.00328005
4248727.619;0.003285378
4251561.905;0.003291372
4254834.286;0.0032967
4255706.667;0.003302028
4258323.81;0.00330669
4260942.857;0.003310686
4257887.619;0.003314682
4259198.095;0.003319344
4261051.429;0.003325338
4261487.619;0.003330666
4262579.048;0.003335328
4263451.429;0.003340656
4263777.143;0.00334665
4263342.857;0.003351978
4264323.81;0.003359304
4265413.333;0.003365964
4266613.333;0.003373956
4273594.286;0.003381948
4279920;0.003389274
4296716.19;0.0033966
4304567.619;0.003404592
4303914.286;0.00341325
4321144.762;0.003421242
4335542.857;0.003428568
4346885.714;0.003435894
4342960;0.003445218
4350811.429;0.00345321
4367388.571;0.00345987
4380914.286;0.003465864
4386148.571;0.00347319
4385929.524;0.003481848
4390729.524;0.00348984
4395965.714;0.003497832
4412323.81;0.003505824
4423230.476;0.00351315
4430211.429;0.00351981
4429775.238;0.003527136
4436754.286;0.003535128
4443299.048;0.003542454
4448969.524;0.003550446
4456603.81;0.003557106
4473400;0.0035631
4469691.429;0.003568428
4475144.762;0.003573756
4473836.19;0.003580416
4467620.952;0.00358641
4468493.333;0.00359307
4466638.095;0.003601062
4471874.286;0.003608388
4473182.857;0.00361638
4481253.333;0.003624372
4485834.286;0.003632364
4489979.048;0.003640356
4494558.095;0.003648348
4509173.333;0.003655674
4507211.429;0.003663666
4513754.286;0.003670992
4521388.571;0.003678318
4541893.333;0.00368631
4552363.81;0.003694302
4548436.19;0.003703626
4554761.905;0.00371295
4560651.429;0.003722274
4584209.524;0.003730266
4599480;0.003737592
4605586.667;0.00374625
4605369.524;0.003754908
4612348.571;0.003762234
4626963.81;0.003770226
4637870.476;0.003778218
4649649.524;0.003783546
4653139.048;0.003787542
4652047.619;0.003792204
4655539.048;0.003797532
4653575.238;0.003804192
4648340.952;0.003810186
4650958.095;0.00381618
4652375.238;0.003822174
4653358.095;0.003828834
4653683.81;0.00383616
4653575.238;0.003843486
4657283.81;0.00384948
4655539.048;0.00385614
4658264.762;0.0038628
4660883.81;0.003867462
4669718.095;0.00387279
4672552.381;0.003878118
4672988.571;0.003883446
4667862.857;0.003888774
4669718.095;0.00389277
4669718.095;0.003897432
4664481.905;0.003903426
4662081.905;0.003908754
4658156.19;0.00391608
4658373.333;0.003924738
4662192.381;0.00393273
4662737.143;0.003942054
4668843.81;0.003950046
4684114.286;0.003958038
4695457.143;0.003966696
4702872.381;0.00397602
4713779.048;0.003984678
4723813.333;0.003994668
4720977.143;0.004003326
4728394.286;0.004011318
4746062.857;0.004019976
4761767.619;0.0040293
4768748.571;0.004037958
4768312.381;0.00404595
4775946.667;0.004053276
4792306.667;0.004061268
4800594.286;0.004068594
4799066.667;0.00407592
4806266.667;0.004083246
4811500.952;0.004089906
4815426.667;0.004096566
4818918.095;0.004103226
4819790.476;0.004109886
4821099.048;0.00411588
4825680;0.004121874
4838112.381;0.004127868
4831786.667;0.004133862
4834186.667;0.004139856
4829278.095;0.004146516
4830150.476;0.004151844
4831897.143;0.004157838
4833314.286;0.004164498
4833205.714;0.004170492
4834186.667;0.004176486
4842040;0.004181148
4842912.381;0.00418581
4844438.095;0.004191804
4841057.143;0.004197798
4841603.81;0.00420246
4842803.81;0.004207122
4844874.286;0.004213782
4846401.905;0.004221774
4853163.81;0.004229766
4854908.571;0.004238424
4856653.333;0.004247082
4858617.143;0.004255074
4872577.143;0.004261734
4883047.619;0.004269726
4889156.19;0.004277052
4890028.571;0.00428571
4895481.905;0.00429237
4902460.952;0.00429903
4909005.714;0.00430569
4923619.048;0.00431235
4921874.286;0.004319676
4926674.286;0.004327668
4931255.238;0.004336326
4933436.19;0.004344984
4939325.714;0.004354308
4954594.286;0.004362966
4966809.524;0.004370292
4982078.095;0.00437562
4992984.762;0.004380948
4999093.333;0.004387608
4995820.952;0.004393602
4994729.524;0.004397598
4993640;0.00440226
4990803.81;0.00440559
4992112.381;0.00440892
4984914.286;0.004412916
4966809.524;0.004417578
4959828.571;0.00442224
4960920;0.004426236
4956339.048;0.004430898
4952630.476;0.004436226
4948268.571;0.004440888
4944779.048;0.00444555
4940415.238;0.00445221
4938017.143;0.004458204
4939979.048;0.004464198
4943906.667;0.004472856
4943251.429;0.004482846
4948704.762;0.004492836
4951758.095;0.004501494
4968990.476;0.004510152
4989059.048;0.004516812
5007817.143;0.004522806
5013489.524;0.004528134
5010872.381;0.004534794
5015015.238;0.004540122
5017851.429;0.004546116
5020032.381;0.004550778
5020251.429;0.004556106
5017198.095;0.0045621
5017523.81;0.004568094
5018179.048;0.004574088
5018723.81;0.004579416
5020142.857;0.004584078
5019923.81;0.00458874
5027885.714;0.004593402
5028977.143;0.004599396
5024504.762;0.00460539
5030502.857;0.004612716
5028977.143;0.004619376
5031049.524;0.004626702
5037264.762;0.004632696
5040754.286;0.00463869
5043809.524;0.00464535
5049699.048;0.00465201
5054933.333;0.004657338
5057552.381;0.004662666
5059950.476;0.004667994
5060169.524;0.004674654
5058097.143;0.004679982
5065186.667;0.00468531
5068020.952;0.004690638
5069767.619;0.004695966
5070420.952;0.00470196
5067803.81;0.004707288
5069548.571;0.004712616
5071948.571;0.00471861
5073148.571;0.004724604
5071948.571;0.004730598
5072384.762;0.004737258
5073910.476;0.004743252
5075655.238;0.004751244
5081763.81;0.00475857
5088089.524;0.004763898
5105102.857;0.004770558
5109466.667;0.004777218
5104885.714;0.004783878
5106411.429;0.004791204
5104666.667;0.004797864
5103358.095;0.00480519
5107830.476;0.00481185
5126916.19;0.00481851
5122990.476;0.004825836
5129752.381;0.004832496
5135859.048;0.004839822
5149165.714;0.004847814
5147201.905;0.004853808
5153746.667;0.004860468
5158544.762;0.004866462
5162689.524;0.004873788
5166834.286;0.004881114
5169670.476;0.004889106
5172942.857;0.004895766
5178177.143;0.004902426
5182975.238;0.00490842
5188211.429;0.00491508
5193009.524;0.004921074
5196935.238;0.004926402
5199990.476;0.004933062
5201080;0.00493839
5201080;0.004943718
5200316.19;0.00494838
5202824.762;0.004953708
5208714.286;0.004959036
5210460.952;0.004964364
5205224.762;0.004969692
5204024.762;0.00497502
5199990.476;0.004981014
5200862.857;0.004986342
5212860.952;0.004991004
5206097.143;0.004996998
5211986.667;0.005002326
5211114.286;0.00500832
5208060.952;0.005014314
5211550.476;0.005020974
5213733.333;0.0050283
5220493.333;0.005036292
5225293.333;0.005044284
5226819.048;0.005050944
5231836.19;0.00505827
5237289.524;0.005065596
5253868.571;0.005072922
5261720;0.00508158
5261283.81;0.005088906
5268481.905;0.00509823
5275245.714;0.005107554
5290514.286;0.005115546
5305346.667;0.005123538
5318870.476;0.005130864
5327596.19;0.005138856
5336758.095;0.005146848
5344609.524;0.00515484
5354643.81;0.005162166
5362495.238;0.005168826
5359880;0.005175486
5369040;0.005182812
5384744.762;0.005190138
5380382.857;0.00519813
5385182.857;0.005206122
5386053.333;0.005212116
5387800;0.00521811
5391725.714;0.005224104
5396306.667;0.005230764
5400451.429;0.00523809
5401977.143;0.005245416
5403068.571;0.005252076
5405032.381;0.005259402
5402851.429;0.005267394
5403832.381;0.005274054
5405468.571;0.005280714
5418337.143;0.005287374
5423573.333;0.0052947
5420954.286;0.005303358
5425535.238;0.005312016
5429243.81;0.005320674
5433607.619;0.005328666
5440150.476;0.005335326
5447131.429;0.005343318
5461527.619;0.00535131
5458910.476;0.005359968
5464800;0.005369292
5478540.952;0.005377284
5490320;0.005383944
5500354.286;0.00539127
5511260.952;0.005399262
5521295.238;0.00540792
5529146.667;0.005415246
5528057.143;0.005422572
5532201.905;0.005429232
5536344.762;0.005435892
5538527.619;0.005443884
5540489.524;0.005451876
5545289.524;0.005458536
5549215.238;0.005463864
5555540.952;0.005468526
5560994.286;0.005473188
5562085.714;0.00547785
5564483.81;0.005483178
5557721.905;0.005488506
5545725.714;0.0054945
5542672.381;0.005500494
5543761.905;0.005505822
5542889.524;0.005511816
5543980.952;0.005519142
5546815.238;0.005525136
5544306.667;0.005529798
5545834.286;0.005535792
5561430.476;0.00554112
5556632.381;0.005546448
5559904.762;0.00555111
5558594.286;0.00555777
5554560;0.00556443
5556849.524;0.005570424
5557940.952;0.005577084
5557940.952;0.00558441
5558158.095;0.005592402
5559032.381;0.00560106
5564047.619;0.005609052
5581499.048;0.005617044
5602876.19;0.00562437
5609419.048;0.005631696
5605057.143;0.005639022
5609419.048;0.005646348
5609855.238;0.005655006
5610074.286;0.005663664
5613127.619;0.005673654
5617272.381;0.005682312
5639958.095;0.00569097
5656971.429;0.005699628
5670059.048;0.005708286
5683582.857;0.005715612
5693180.952;0.005722938
5687944.762;0.005729598
5691217.143;0.005736258
5692089.524;0.005742918
5693180.952;0.005749578
5696453.333;0.005755572
5702996.19;0.005761566
5707577.143;0.005766894
5708232.381;0.005772888
5710194.286;0.005778882
5705287.619;0.005784876
5707140.952;0.00579087
5707468.571;0.005796864
5707249.524;0.005802858
5706268.571;0.005808852
5705723.81;0.005814846
5707685.714;0.005822172
5714121.905;0.005828166
5716956.19;0.00583416
5720228.571;0.005840154
5721537.143;0.005846148
5723064.762;0.005852808
5725026.667;0.005858802
5723392.381;0.005865462
5725026.667;0.005873454
5730918.095;0.00588078
5734843.81;0.005888772
5740078.095;0.005896764
5747495.238;0.005905422
5762546.667;0.00591408
5761019.048;0.005922738
5769089.524;0.005931396
5773889.524;0.005940054
5782613.333;0.00594738
5802245.714;0.005953374
5810535.238;0.005958702
5808352.381;0.005965362
5811188.571;0.005971356
5811841.905;0.005976684
5814024.762;0.005982678
5811952.381;0.005988006
5814241.905;0.005995998
5821003.81;0.006002658
5817733.333;0.006009318
5823403.81;0.006015312
5827112.381;0.006019974
5828857.143;0.006025968
5829729.524;0.006032628
5826893.333;0.006039288
5828529.524;0.006044616
5829729.524;0.00605061
5829620.952;0.006056604
5829401.905;0.006062598
5829401.905;0.00606726
5829401.905;0.006071922
5829512.381;0.00607725
5828748.571;0.006083244
5826676.19;0.006089238
5824712.381;0.006095898
5818169.524;0.006102558
5815769.524;0.006108552
5821878.095;0.006115212
5821986.667;0.006123204
5821878.095;0.006131196
5831693.333;0.006138522
5837146.667;0.006145848
5850670.476;0.006151842
5850017.143;0.00615717
5855904.762;0.006161832
5857649.524;0.006169158
5859177.143;0.006176484
5858740.952;0.006184476
5857977.143;0.006192468
5860813.333;0.006199794
5879026.667;0.006207786
5886007.619;0.006214446
5884480;0.006219774
5902148.571;0.006226434
5911310.476;0.006233094
5904984.762;0.006238422
5909346.667;0.006243084
5913710.476;0.006246414
5927015.238;0.006249078
5918291.429;0.006253074
5900840;0.006258402
5889933.333;0.00626373
5894297.143;0.006269724
5889933.333;0.006276384
5889497.143;0.006283044
5892114.286;0.006289704
5894733.333;0.00629703
5900186.667;0.006305022
5904329.524;0.00631368
5909565.714;0.006321672
5927451.429;0.006328332
5939230.476;0.006334326
5944030.476;0.006340986
5943158.095;0.00634698
5946211.429;0.006351642
5949920;0.006357636
5953192.381;0.006362964
5954718.095;0.006367626
5949920;0.006372288
5951337.143;0.00637695
5951992.381;0.006382278
5951120;0.00638694
5950464.762;0.006392268
5949156.19;0.006397596
5942502.857;0.006402258
5944466.667;0.006408252
5937704.762;0.006414246
5936177.143;0.00642024
5938794.286;0.006427566
5938249.524;0.006434226
5937813.333;0.00644022
5938030.476;0.006447546
5943375.238;0.00645354
5950137.143;0.006461532
5965405.714;0.006468858
5962133.333;0.006475518
5966933.333;0.006482844
5970641.905;0.00649017
5973259.048;0.006497496
5976095.238;0.006504822
5981984.762;0.006512814
5997253.333;0.006519474
6003796.19;0.006526134
6000961.905;0.006532794
6004670.476;0.006538788
6010121.905;0.006544782
6020811.429;0.006551442
6016230.476;0.006557436
6018630.476;0.006564762
6018194.286;0.006572088
6022120;0.006579414
6037826.667;0.006585408
6043060.952;0.006592068
6042405.714;0.006598062
6047641.905;0.006604056
6052876.19;0.006609384
6055929.524;0.006614712
6057020.952;0.006619374
6056584.762;0.006624702
6053422.857;0.006629364
6054840;0.00663336
6054729.524;0.006638688
6053967.619;0.006644682
6051786.667;0.00665001
6050367.619;0.006655338
6049714.286;0.00666
6049931.429;0.006665994
6050150.476;0.006671988
6048950.476;0.006677982
6049278.095;0.006685974
6049822.857;0.0066933
6051567.619;0.006699294
6054512.381;0.00670662
6062910.476;0.006713946
6068363.81;0.006721272
6075125.714;0.006729264
6094102.857;0.006737256
6100209.524;0.006745914
6100647.619;0.006754572
6122895.238;0.006764562
6129003.81;0.00677322
6127040;0.006779214
6136420.952;0.006785208
6159104.762;0.006792534
6164777.143;0.006801858
6161940.952;0.006809184
6164777.143;0.006815844
6169794.286;0.006822504
6191388.571;0.006830496
6197059.048;0.006838488
6195533.333;0.00684648
6200767.619;0.006854472
6203386.667;0.006862464
6208840;0.006869124
6225417.143;0.00687645
6232832.381;0.006883776
6229123.81;0.006890436
6234579.048;0.006897762
6238068.571;0.006904422
6243085.714;0.006910416
6247230.476;0.006915078
6250064.762;0.006921738
6251373.333;0.006927732
6246575.238;0.006935058
6247994.286;0.006941052
6248756.19;0.006947046
6250064.762;0.006954372
6249739.048;0.006961698
6249847.619;0.006970356
6250828.571;0.006977682
6252464.762;0.006985674
6261626.667;0.006991668
6269478.095;0.006997662
6286057.143;0.00700299
6293036.19;0.00700965
6289765.714;0.00701631
6293255.238;0.007024302
6294563.81;0.007033626
6296744.762;0.007042284
6299580.952;0.00704961
6305034.286;0.00705627
6325320;0.007064928
6332300.952;0.00707292
6329900.952;0.007080246
6339716.19;0.007088904
6359348.571;0.007097562
6365891.429;0.00710622
6366329.524;0.00711288
6373089.524;0.007120206
6379417.143;0.007128198
6386615.238;0.007134858
6401666.667;0.007140186
6399483.81;0.007146846
6405156.19;0.007154172
6406245.714;0.007160832
6407773.333;0.007167492
6410826.667;0.00717282
6413226.667;0.007177482
6417371.429;0.00718281
6417588.571;0.007187472
6411918.095;0.007194132
6399047.619;0.007200126
6402975.238;0.007205454
6402537.143;0.007210782
6404718.095;0.00721611
6407445.714;0.007221438
6405373.333;0.007226766
6402647.619;0.00723276
6402211.429;0.007238754
6397085.714;0.007245414
6394466.667;0.007252074
6399702.857;0.007260066
6398611.429;0.007268724
6398283.81;0.007276716
6406464.762;0.007287372
6427403.81;0.007297362
6437001.905;0.007306686
6445291.429;0.00731601
6456634.286;0.007325334
6470594.286;0.007334658
6484118.095;0.00734265
6495897.143;0.007349976
6506367.619;0.007356636
6501786.667;0.007363296
6506367.619;0.007370622
6508331.429;0.007377282
6509420.952;0.007384608
6511601.905;0.007391934
6515529.524;0.00739926
6517927.619;0.007405254
6520327.619;0.007411248
6524036.19;0.007417908
6526653.333;0.007424568
6531017.143;0.007430562
6533851.429;0.00743589
6534070.476;0.007441884
6534506.667;0.007447878
6531998.095;0.007453872
6532870.476;0.007460532
6533961.905;0.007466526
6534723.81;0.00747252
6535270.476;0.007477848
6539960;0.007483176
6541485.714;0.00748917
6537451.429;0.007494498
6537996.19;0.007499826
6538760;0.00750582
6539304.762;0.00751248
6539304.762;0.00751914
6538540.952;0.0075258
6538651.429;0.007533126
6539740.952;0.00754245
6542360;0.007551108
6550430.476;0.007559766
6557628.571;0.007567758
6577478.095;0.00757575
6587076.19;0.007584408
6582931.429;0.007593732
6591657.143;0.007603056
6607579.048;0.007611048
6617177.143;0.007618374
6633318.095;0.007625034
6642480;0.007631694
6636373.333;0.007637688
6637681.905;0.007643016
6637245.714;0.00764901
6639207.619;0.007655004
6639099.048;0.007660332
6645752.381;0.007667658
6645971.429;0.007674318
6640190.476;0.00768231
6639207.619;0.007689636
6633756.19;0.00769563
6635281.905;0.007701624
6648588.571;0.007707618
6645752.381;0.007712946
6649678.095;0.007718274
6647497.143;0.007723602
6643460.952;0.007730262
6646188.571;0.007736256
6647169.524;0.007741584
6646080;0.007746912
6645424.762;0.007750242
6643352.381;0.007753572
6641935.238;0.007758234
6640954.286;0.007763562
6632228.571;0.00776889
6617177.143;0.007774884
6620230.476;0.007781544
6614996.19;0.00778887
6611068.571;0.007796196
6613251.429;0.007802856
6616523.81;0.007810182
6615760;0.007817508
6621977.143;0.007824168
6634628.571;0.007831494
6634409.524;0.007837488
6640954.286;0.007844814
6646188.571;0.00785214
6650769.524;0.007859466
6655133.333;0.00786546
6661240;0.007871454
6676944.762;0.007874784
6673238.095;0.007880112
6674982.857;0.007886772
6673019.048;0.0078921
6669529.524;0.007898094
6670946.667;0.007904088
6666912.381;0.007911414
6663640;0.007917408
6662548.571;0.007924068
6666912.381;0.007930728
6682179.048;0.007936056
6679561.905;0.007941384
6685015.238;0.007947378
6687196.19;0.007954038
6686106.667;0.007960032
6683270.476;0.007966692
6687306.667;0.00797202
6689379.048;0.00797868
6695485.714;0.007986672
6696577.143;0.007993998
6693196.19;0.008002656
6700720;0.008009982
6704647.619;0.00801531
6709445.714;0.008020638
6714462.857;0.008027298
6719262.857;0.008033292
6723188.571;0.008039286
6725588.571;0.008044614
6727114.286;0.008049276
6727114.286;0.008053272
6724605.714;0.008057934
6725041.905;0.008062596
6723952.381;0.008067924
6714681.905;0.008072586
6710537.143;0.008077914
6707045.714;0.008083908
6705083.81;0.008089902
6703992.381;0.008095896
6706939.048;0.00810189
6705411.429;0.008109216
6704973.333;0.008116542
6705628.571;0.008124534
6710973.333;0.008132526
6724497.143;0.008139852
6731041.905;0.008146512
6730603.81;0.008153838
6737365.714;0.008160498
6742165.714;0.008165826
6747400;0.008173152
6753508.571;0.008180478
6757217.143;0.008187804
6760053.333;0.00819513
6762015.238;0.008202456
6763979.048;0.008209782
6777285.714;0.008217108
6774230.476;0.008223768
6783173.333;0.008229762
6796916.19;0.008235756
6793207.619;0.008240418
6795826.667;0.008245746
6793426.667;0.008251074
6791354.286;0.008255736
6793862.857;0.008259732
6796480;0.00826506
6796588.571;0.008269722
6796588.571;0.00827505
6795499.048;0.008280378
6795062.857;0.008287038
6790154.286;0.008292366
6789937.143;0.008297694
6794188.571;0.008303022
6793207.619;0.008309016
6792990.476;0.00831501
6792226.667;0.008321004
6792662.857;0.008326332
6793971.429;0.00833166
6795826.667;0.008336988
6795607.619;0.008342982
6794952.381;0.008348976
6794626.667;0.008355636
6794952.381;0.008363628
6806950.476;0.008370954
6816112.381;0.008378946
6823963.81;0.008387604
6833998.095;0.008397594
6840106.667;0.008406252
6854939.048;0.00841491
6871516.19;0.008422902
6879369.524;0.008430894
6889840;0.008439552
6899438.095;0.008448876
6909470.476;0.008457534
6919068.571;0.008464194
6927358.095;0.008470854
6937392.381;0.008478846
6933683.81;0.008487504
6939137.143;0.00849483
6941971.429;0.008502156
6946116.19;0.008510148
6960512.381;0.00851814
6967493.333;0.008525466
6967274.286;0.008532126
6973600;0.008537454
6977963.81;0.008542782
6980144.762;0.00854811
6980580.952;0.008553438
6976763.81;0.008560098
6978836.19;0.008567424
6979491.429;0.008576082
6980144.762;0.00858474
6980255.238;0.008592066
6980908.571;0.008598726
6988215.238;0.008606052
7002394.286;0.008614044
6998904.762;0.008622036
7006756.19;0.008628696
7011556.19;0.008635356
7017226.667;0.008640684
7021807.619;0.008646012
7024643.81;0.008652006
7025952.381;0.008659998
7025297.143;0.008668656
7023880;0.008675982
7026714.286;0.008683974
7046019.048;0.0086913
7053001.905;0.008698626
7052127.619;0.008705952
7058889.524;0.008713944
7065215.238;0.008721936
7070885.714;0.008728596
7075249.524;0.00873459
7092264.762;0.008741916
7103605.714;0.008749242
7096626.667;0.008757234
7101643.81;0.008765892
7103824.762;0.008775216
7116259.048;0.00878454
7113859.048;0.00879453
7123455.238;0.008803188
7148540.952;0.008810514
7161628.571;0.00881784
7168173.333;0.008825166
7168609.524;0.008832492
7172754.286;0.008838486
7176243.81;0.008845146
7179080;0.008851806
7180388.571;0.008856468
7181916.19;0.008861796
7179405.714;0.008866458
7180169.524;0.008870454
7179188.571;0.008875116
7173407.619;0.008880444
7157702.857;0.008886438
7159883.81;0.008892432
7157266.667;0.008901756
7155521.905;0.008912412
7157047.619;0.008923068
7162064.762;0.008932392
7194784.762;0.008940384
7213106.667;0.008949042
7223140.952;0.008958366
7233175.238;0.00896769
7238845.714;0.008976348
7240154.286;0.008985006
7254116.19;0.008992332
7252807.619;0.009000324
7260222.857;0.009006984
7263712.381;0.009013644
7268948.571;0.009019638
7270474.286;0.009025632
7268948.571;0.00903096
7266876.19;0.009036954
7269276.19;0.009042282
7268840;0.009048276
7267857.143;0.009052272
7266331.429;0.009056934
7257824.762;0.009062262
7257169.524;0.00906759
7254552.381;0.009072252
7252588.571;0.009076914
7254116.19;0.009082242
7248007.619;0.009088236
7245390.476;0.00909423
7241900.952;0.00910089
7241028.571;0.009106884
7239937.143;0.00911421
7241792.381;0.00912087
7241028.571;0.00912753
7242990.476;0.009133524
7260659.048;0.009140184
7254116.19;0.00914751
7257386.667;0.009153504
7256297.143;0.009159498
7256952.381;0.00916749
7257605.714;0.009175482
7265022.857;0.009182808
7270474.286;0.0091908
7273529.524;0.00919746
7277019.048;0.00920412
7283127.619;0.009211446
7295996.19;0.009218772
7290979.048;0.009226098
7294032.381;0.009233424
7296215.238;0.009242082
7297523.81;0.009248742
7302758.095;0.009255402
7308430.476;0.009262062
7312792.381;0.009269388
7320209.524;0.009275382
7326971.429;0.009282042
7330243.81;0.009289368
7330897.143;0.009296694
7330024.762;0.00930402
7328824.762;0.009312012
7341803.81;0.009319338
7339186.667;0.009325332
7345076.19;0.009331992
7348348.571;0.009337986
7350527.619;0.009345312
7351838.095;0.009353304
7348674.286;0.009361962
7350857.143;0.009369954
7354019.048;0.00937728
7371468.571;0.009385272
7378449.524;0.009391266
7378449.524;0.00939726
7383030.476;0.009403254
7384121.905;0.009408582
7382594.286;0.009414576
7381066.667;0.00942057
7382594.286;0.009426564
7382811.429;0.00943056
7382158.095;0.009435222
7375613.333;0.009439884
7373651.429;0.009445878
7371906.667;0.009451206
7368415.238;0.009456534
7365142.857;0.009461862
7359689.524;0.009466524
7357727.619;0.009471852
7356855.238;0.009477846
7361544.762;0.009485172
7359908.571;0.009495828
7360017.143;0.009506484
7379321.905;0.009516474
7394590.476;0.009526464
7413784.762;0.009535122
7434291.429;0.009544446
7444325.714;0.009551772
7454796.19;0.0095571
7467011.429;0.009562428
7461558.095;0.009568422
7467228.571;0.00957375
7466792.381;0.009577746
7464392.381;0.009583074
7462211.429;0.009587736
7458939.048;0.009591732
7457413.333;0.009596394
7456321.905;0.009601722
7452394.286;0.009606384
7437780.952;0.009612378
7432108.571;0.009617706
7435163.81;0.0096237
7434508.571;0.009629694
7433855.238;0.009635022
7437561.905;0.009639684
7434508.571;0.009645012
7433527.619;0.009651006
7433744.762;0.009656334
7434508.571;0.009662994
7434508.571;0.009668988
7433200;0.009674316
7434291.429;0.009678978
7436034.286;0.009684972
7437017.143;0.009691632
7441489.524;0.009698292
7442579.048;0.009704286
7440072.381;0.00971028
7442361.905;0.009716274
7451087.619;0.009721602
7455449.524;0.009726264
7455885.714;0.009731592
7455449.524;0.00973692
7451740.952;0.009742914
7452394.286;0.009748242
7452613.333;0.009754902
7451849.524;0.009760896
7450213.333;0.009767556
7449451.429;0.00977355
7449668.571;0.009779544
7449560;0.009785538
7449013.333;0.009792198
7449777.143;0.009798858
7450323.81;0.009806184
7452504.762;0.00981351
7457630.476;0.009820836
7460683.81;0.009828828
7467228.571;0.009835488
7488386.667;0.009840816
7495365.714;0.009847476
7489695.238;0.009854802
7493403.81;0.009861462
7491659.048;0.009868122
7492095.238;0.009874782
7497984.762;0.009882108
7515870.476;0.009888102
7510636.19;0.00989343
7516525.714;0.009899424
7517398.095;0.009906084
7516089.524;0.009912078
7519142.857;0.009917406
7519142.857;0.009922734
7520234.286;0.009928062
7525904.762;0.009934056
7528958.095;0.009939384
7525251.429;0.009944046
7526449.524;0.009948708
7527977.143;0.009954036
7528196.19;0.009959364
7527977.143;0.009965358
7527868.571;0.009971352
7527213.333;0.009977346
7527432.381;0.009984006
7542920;0.009989334
7537902.857;0.009995328
7542264.762;0.010001988
7542047.619;0.010008648
7540737.143;0.010014642
7539647.619;0.010020636
7543356.19;0.010028628
7545318.095;0.010035954
7553607.619;0.010043946
7556443.81;0.010051938
7562333.333;0.010060596
7579127.619;0.010069254
7590036.19;0.010077246
7600506.667;0.010085238
7606613.333;0.010094562
7605521.905;0.010101888
7613375.238;0.010109214
7637150.476;0.010117872
7646312.381;0.010125864
7641950.476;0.010134522
7648057.143;0.010142514
7650457.143;0.01014984
7655910.476;0.010157166
7670306.667;0.010163826
7669434.286;0.010170486
7674015.238;0.010178478
7678377.143;0.010184472
7683394.286;0.010189134
7687320;0.01019646
7690158.095;0.01020312
7688630.476;0.010210446
7685139.048;0.010217772
7686339.048;0.010225764
7688956.19;0.01023309
7691356.19;0.010241082
7698009.524;0.01024974
7704335.238;0.010257732
7710224.762;0.010265058
7714805.714;0.010272384
7721131.429;0.010279044
7723748.571;0.01028637
7726584.762;0.01029303
7730729.524;0.010301022
7734655.238;0.010308348
7738800;0.010317006
7744034.286;0.010324332
7758866.667;0.010331658
7772826.667;0.010338318
7775007.619;0.010345644
7775007.619;0.010352304
7781116.19;0.010361628
7782207.619;0.010370286
7788097.143;0.010377612
7794641.905;0.010383606
7815580.952;0.0103896
7808819.048;0.010396926
7811436.19;0.010404252
7811000;0.010411578
7804457.143;0.010417572
7808165.714;0.010423566
7812419.048;0.010428894
7826923.81;0.010435554
7822123.81;0.010440882
7823215.238;0.010447542
7821034.286;0.010454868
7818636.19;0.010462194
7820380.952;0.01046952
7821253.333;0.010476846
7821253.333;0.010484172
7835649.524;0.010490166
7846556.19;0.010497492
7841756.19;0.010504818
7845464.762;0.010510812
7847428.571;0.01051614
7847428.571;0.010522134
7844483.81;0.01052946
7846664.762;0.010536786
7847537.143;0.01054278
7848737.143;0.01054944
7850371.429;0.010555434
7856588.571;0.010562094
7858988.571;0.010568088
7858552.381;0.010574082
7855499.048;0.010580742
7856480;0.010586736
7858224.762;0.010593396
7859099.048;0.010600722
7859860.952;0.010608048
7865314.286;0.010615374
7867714.286;0.010624032
7869459.048;0.010633356
7872731.429;0.01064268
7878403.81;0.010652004
7891925.714;0.010661994
7901087.619;0.010669986
7913739.048;0.010677978
7930754.286;0.010685304
7946895.238;0.01069263
7950820.952;0.01069929
7946240;0.010704618
7945150.476;0.010709946
7942314.286;0.010715274
7941441.905;0.010721268
7943186.667;0.010727262
7941878.095;0.01073259
7939914.286;0.010737918
7932280;0.010743912
7931407.619;0.01074924
7935443.81;0.010754568
7929881.905;0.010761228
7930754.286;0.010768554
7928899.048;0.010775214
7928571.429;0.010781874
7928790.476;0.0107892
7940788.571;0.010796526
7939697.143;0.010803852
7945805.714;0.010809846
7950603.81;0.010817172
7955620.952;0.010823832
7958674.286;0.010830492
7961508.571;0.010837818
7962819.048;0.010845144
7964563.81;0.01085247
7968272.381;0.01085913
7982232.381;0.010866456
7990521.905;0.010873116
7988121.905;0.010879776
7995975.238;0.010886436
7999245.714;0.010893762
7999028.571;0.010901088
7998156.19;0.01090908
7996520;0.010917738
7999245.714;0.01092573
8015388.571;0.010933056
8024548.571;0.010940382
8022586.667;0.010948374
8028912.381;0.0109557
8033493.333;0.010963026
8038510.476;0.010969686
8042436.19;0.010976346
8046579.048;0.010983006
8049415.238;0.010990998
8052032.381;0.010997658
8057049.524;0.011003652
8059885.714;0.011011644
8063811.429;0.011017638
8064466.667;0.011024964
8060649.524;0.011031624
8062939.048;0.011037618
8065339.048;0.01104228
8066539.048;0.011046942
8065883.81;0.011053602
8065339.048;0.011058264
8065777.143;0.011062926
8066211.429;0.01106892
8065558.095;0.011074248
8064794.286;0.011079576
8062721.905;0.011084904
8060540.952;0.011090232
8055087.619;0.011094894
8051379.048;0.01109889
8046144.762;0.011102886
8032840;0.01110888
8038291.429;0.011114208
8034365.714;0.011120202
8032182.857;0.011127528
8030220.952;0.01113552
8027603.81;0.011142846
8031201.905;0.011150838
8044617.143;0.011158164
8054215.238;0.011164824
8050942.857;0.011171484
8060104.762;0.011176812
8074720;0.01118214
8071011.429;0.011186802
8074720;0.011192796
8074500.952;0.01119879
8068828.571;0.011206116
8070466.667;0.011212776
8071339.048;0.011218104
8072428.571;0.011224098
8072973.333;0.01122876
8077556.19;0.011234088
8082354.286;0.011240748
8084535.238;0.011246076
8081918.095;0.01125207
8079626.667;0.01125873
8080499.048;0.011264724
8075590.476;0.011270718
8080062.857;0.011277378
8079735.238;0.011284038
8079735.238;0.011291364
8086060.952;0.011299356
8097405.714;0.011308014
8096531.429;0.011316006
8103076.19;0.011322666
8119653.333;0.01132866
8127068.571;0.01133532
8124017.143;0.011341314
8126198.095;0.011347308
8126851.429;0.011353302
8128160;0.01135863
8125870.476;0.011364624
8127942.857;0.011369952
8128487.619;0.011375946
8127289.524;0.01138194
8125653.333;0.011386602
8120744.762;0.01139193
8118563.81;0.011397924
8118344.762;0.011403252
8121180.952;0.011407914
8120525.714;0.011414574
8117800;0.011420568
8117144.762;0.011427228
8116272.381;0.011434554
8108529.524;0.011441214
8113655.238;0.011447874
8113763.81;0.011453868
8114419.048;0.011461194
8122053.333;0.011467854
8123580.952;0.011474514
8126851.429;0.011481174
8128815.238;0.011489166
8125542.857;0.011495826
8131215.238;0.011502486
8129579.048;0.011509812
8131651.429;0.011516472
8137540.952;0.011523798
8140813.333;0.011530458
8144083.81;0.011537784
8147575.238;0.011543778
8149100.952;0.011550438
8151064.762;0.011555766
8152590.476;0.01156176
8150409.524;0.011567754
8151609.524;0.011573748
8152918.095;0.011580408
8153354.286;0.011587068
8153462.857;0.011593062
8154226.667;0.011599056
8154554.286;0.011603718
8155643.81;0.011609046
8155754.286;0.011614374
8154881.905;0.011620368
8154007.619;0.011625696
8153900.952;0.011630358
8154118.095;0.011635686
8153354.286;0.011640348
8151718.095;0.01164501
8149428.571;0.011649672
8148445.714;0.011655
8147575.238;0.011660328
8146700.952;0.011665656
8144847.619;0.011672316
8137758.095;0.01167831
8136013.333;0.01168497
8133396.19;0.011692962
8132304.762;0.01170162
8135249.524;0.011709612
8136558.095;0.01171827
8153683.81;0.01172826
8161535.238;0.011737584
8169822.857;0.011746908
8182038.095;0.0117549
8197742.857;0.011762226
8209960;0.011768886
8216066.667;0.011777544
8214102.857;0.011786202
8218030.476;0.011793528
8223483.81;0.011800854
8227409.524;0.011807514
8231337.143;0.011814174
8236352.381;0.011820834
8239407.619;0.01182816
8242460.952;0.011835486
8244422.857;0.011842146
8240060.952;0.011848806
8240607.619;0.0118548
8242241.905;0.011862126
8242788.571;0.011870118
8242897.143;0.011878776
8243116.19;0.011886102
8244097.143;0.011893428
8253148.571;0.011902086
8269289.524;0.011908746
8264927.619;0.011914074
8269944.762;0.011920068
8269944.762;0.011926728
8263293.333;0.011932722
8264274.286;0.011939382
8260782.857;0.011946042
8258384.762;0.011952036
8257948.571;0.011958696
8255984.762;0.011966022
8252712.381;0.011973348
8249878.095;0.011979342
8250314.286;0.011985336
8254240;0.011993328
8254348.571;0.01200132
8259038.095;0.012009312
8259257.143;0.012017304
8261220.952;0.012025296
8272780.952;0.012033288
8279760;0.012040614
8276925.714;0.012049272
8280415.238;0.01205793
8282160;0.01206459
8285649.524;0.012073248
8289358.095;0.01208124
8292630.476;0.012089232
8296558.095;0.012096558
8297864.762;0.012103218
8293066.667;0.01211121
8293939.048;0.012119202
8293502.857;0.012125862
8284779.048;0.012131856
8277579.048;0.01213785
8249222.857;0.012143844
8221300.952;0.012149172
8175493.333;0.012155832
8142339.048;0.012161826
8128815.238;0.012168486
8106565.714;0.012175146
8088680;0.012181806
8073847.619;0.012188466
8055960;0.012195126
8035019.048;0.012201786
8018005.714;0.01220778
8001426.667;0.012212442
7984849.524;0.012216438
7964344.762;0.012221766
7943405.714;0.012227094
7924209.524;0.012232422
7901087.619;0.012239082
7884074.286;0.012246408
7871859.048;0.012253734
7853535.238;0.012260394
7830413.333;0.01226772
7810782.857;0.01227438
7795076.19;0.012281706
7773700.952;0.012289698
7749270.476;0.012298356
7723531.429;0.012307014
7695609.524;0.012315006
7667689.524;0.012322998
7638897.143;0.012332322
7588289.524;0.01234098
7551643.81;0.012348306
7508891.429;0.012355632
7445198.095;0.012362292
7354455.238;0.012368952
7072632.381;0.012376278
6442674.286;0.012384936
6058765.714;0.012392928
5347664.762;0.012402252
685799.2381;0.012412242
